" File: 160128_ReferenceSpectra\2.IRR
" RAD->  Wave:366.44nm  Pix:434  Val:  0.000  Time:60ms  Avg:5  Sm:1  Sg:1  Tc:off  SNAP  Xt:1  Ch:1  Xtrig wnmcal >RAD-IS6.CAL
 180.00  0.0000E+000
 180.50  0.0000E+000
 181.00  0.0000E+000
 181.50  0.0000E+000
 182.00  0.0000E+000
 182.50  0.0000E+000
 183.00  0.0000E+000
 183.50  0.0000E+000
 184.00  0.0000E+000
 184.50  0.0000E+000
 185.00  0.0000E+000
 185.50  0.0000E+000
 186.00  0.0000E+000
 186.50  0.0000E+000
 187.00  0.0000E+000
 187.50  0.0000E+000
 188.00  0.0000E+000
 188.50  0.0000E+000
 189.00  0.0000E+000
 189.50  0.0000E+000
 190.00  0.0000E+000
 190.50  0.0000E+000
 191.00  0.0000E+000
 191.50  0.0000E+000
 192.00  0.0000E+000
 192.50  0.0000E+000
 193.00  0.0000E+000
 193.50  0.0000E+000
 194.00  0.0000E+000
 194.50  0.0000E+000
 195.00  0.0000E+000
 195.50  0.0000E+000
 196.00  0.0000E+000
 196.50  0.0000E+000
 197.00  0.0000E+000
 197.50  0.0000E+000
 198.00  0.0000E+000
 198.50  0.0000E+000
 199.00  0.0000E+000
 199.50  0.0000E+000
 200.00  0.0000E+000
 200.50  0.0000E+000
 201.00  0.0000E+000
 201.50  0.0000E+000
 202.00  0.0000E+000
 202.50  0.0000E+000
 203.00  0.0000E+000
 203.50  0.0000E+000
 204.00  0.0000E+000
 204.50  0.0000E+000
 205.00  0.0000E+000
 205.50  0.0000E+000
 206.00  0.0000E+000
 206.50  0.0000E+000
 207.00  0.0000E+000
 207.50  0.0000E+000
 208.00  0.0000E+000
 208.50  0.0000E+000
 209.00  0.0000E+000
 209.50  0.0000E+000
 210.00  0.0000E+000
 210.50  0.0000E+000
 211.00  0.0000E+000
 211.50  0.0000E+000
 212.00  0.0000E+000
 212.50  0.0000E+000
 213.00  0.0000E+000
 213.50  0.0000E+000
 214.00  0.0000E+000
 214.50  0.0000E+000
 215.00  0.0000E+000
 215.50  0.0000E+000
 216.00  0.0000E+000
 216.50  0.0000E+000
 217.00  0.0000E+000
 217.50  0.0000E+000
 218.00  0.0000E+000
 218.50  0.0000E+000
 219.00  0.0000E+000
 219.50  0.0000E+000
 220.00  0.0000E+000
 220.50  0.0000E+000
 221.00  0.0000E+000
 221.50  0.0000E+000
 222.00  0.0000E+000
 222.50  0.0000E+000
 223.00  0.0000E+000
 223.50  0.0000E+000
 224.00  0.0000E+000
 224.50  0.0000E+000
 225.00  0.0000E+000
 225.50  0.0000E+000
 226.00  0.0000E+000
 226.50  0.0000E+000
 227.00  0.0000E+000
 227.50  0.0000E+000
 228.00  0.0000E+000
 228.50  0.0000E+000
 229.00  0.0000E+000
 229.50  0.0000E+000
 230.00  0.0000E+000
 230.50  0.0000E+000
 231.00  0.0000E+000
 231.50  0.0000E+000
 232.00  0.0000E+000
 232.50  0.0000E+000
 233.00  0.0000E+000
 233.50  0.0000E+000
 234.00  0.0000E+000
 234.50  0.0000E+000
 235.00  0.0000E+000
 235.50  0.0000E+000
 236.00  0.0000E+000
 236.50  0.0000E+000
 237.00  0.0000E+000
 237.50  0.0000E+000
 238.00  0.0000E+000
 238.50  0.0000E+000
 239.00  0.0000E+000
 239.50  0.0000E+000
 240.00  0.0000E+000
 240.50  0.0000E+000
 241.00  0.0000E+000
 241.50  0.0000E+000
 242.00  0.0000E+000
 242.50  0.0000E+000
 243.00  0.0000E+000
 243.50  0.0000E+000
 244.00  0.0000E+000
 244.50  0.0000E+000
 245.00  0.0000E+000
 245.50  0.0000E+000
 246.00  0.0000E+000
 246.50  0.0000E+000
 247.00  0.0000E+000
 247.50  0.0000E+000
 248.00  0.0000E+000
 248.50  0.0000E+000
 249.00  0.0000E+000
 249.50  0.0000E+000
 250.00  0.0000E+000
 250.50  0.0000E+000
 251.00  0.0000E+000
 251.50  0.0000E+000
 252.00  0.0000E+000
 252.50  0.0000E+000
 253.00  0.0000E+000
 253.50  0.0000E+000
 254.00  0.0000E+000
 254.50  0.0000E+000
 255.00  0.0000E+000
 255.50  0.0000E+000
 256.00  0.0000E+000
 256.50  0.0000E+000
 257.00  0.0000E+000
 257.50  0.0000E+000
 258.00  0.0000E+000
 258.50  0.0000E+000
 259.00  0.0000E+000
 259.50  0.0000E+000
 260.00  0.0000E+000
 260.50  0.0000E+000
 261.00  0.0000E+000
 261.50  0.0000E+000
 262.00  0.0000E+000
 262.50  0.0000E+000
 263.00  0.0000E+000
 263.50  0.0000E+000
 264.00  0.0000E+000
 264.50  0.0000E+000
 265.00  0.0000E+000
 265.50  0.0000E+000
 266.00  0.0000E+000
 266.50  0.0000E+000
 267.00  0.0000E+000
 267.50  0.0000E+000
 268.00  0.0000E+000
 268.50  0.0000E+000
 269.00  0.0000E+000
 269.50  0.0000E+000
 270.00  0.0000E+000
 270.50  0.0000E+000
 271.00  0.0000E+000
 271.50  0.0000E+000
 272.00  0.0000E+000
 272.50  0.0000E+000
 273.00  0.0000E+000
 273.50  0.0000E+000
 274.00  0.0000E+000
 274.50  0.0000E+000
 275.00  0.0000E+000
 275.50  0.0000E+000
 276.00  0.0000E+000
 276.50  0.0000E+000
 277.00  0.0000E+000
 277.50  0.0000E+000
 278.00  0.0000E+000
 278.50  0.0000E+000
 279.00  0.0000E+000
 279.50  0.0000E+000
 280.00  0.0000E+000
 280.50  0.0000E+000
 281.00  0.0000E+000
 281.50  0.0000E+000
 282.00  0.0000E+000
 282.50  0.0000E+000
 283.00  0.0000E+000
 283.50  0.0000E+000
 284.00  0.0000E+000
 284.50  0.0000E+000
 285.00  0.0000E+000
 285.50  0.0000E+000
 286.00  0.0000E+000
 286.50  0.0000E+000
 287.00  0.0000E+000
 287.50  0.0000E+000
 288.00  0.0000E+000
 288.50  0.0000E+000
 289.00  0.0000E+000
 289.50  0.0000E+000
 290.00  0.0000E+000
 290.50  0.0000E+000
 291.00  0.0000E+000
 291.50  0.0000E+000
 292.00  0.0000E+000
 292.50  0.0000E+000
 293.00  0.0000E+000
 293.50  0.0000E+000
 294.00  0.0000E+000
 294.50  0.0000E+000
 295.00  0.0000E+000
 295.50  0.0000E+000
 296.00  0.0000E+000
 296.50  0.0000E+000
 297.00  0.0000E+000
 297.50  0.0000E+000
 298.00  0.0000E+000
 298.50  0.0000E+000
 299.00  0.0000E+000
 299.50  0.0000E+000
 300.00  0.0000E+000
 300.50  0.0000E+000
 301.00  0.0000E+000
 301.50  0.0000E+000
 302.00  0.0000E+000
 302.50  0.0000E+000
 303.00  0.0000E+000
 303.50  0.0000E+000
 304.00  0.0000E+000
 304.50  0.0000E+000
 305.00  0.0000E+000
 305.50  0.0000E+000
 306.00  0.0000E+000
 306.50  0.0000E+000
 307.00  0.0000E+000
 307.50  0.0000E+000
 308.00  0.0000E+000
 308.50  0.0000E+000
 309.00  0.0000E+000
 309.50  0.0000E+000
 310.00  0.0000E+000
 310.50  0.0000E+000
 311.00  0.0000E+000
 311.50  0.0000E+000
 312.00  0.0000E+000
 312.50  0.0000E+000
 313.00  0.0000E+000
 313.50  0.0000E+000
 314.00  0.0000E+000
 314.50  0.0000E+000
 315.00  0.0000E+000
 315.50  0.0000E+000
 316.00  0.0000E+000
 316.50  0.0000E+000
 317.00  0.0000E+000
 317.50  0.0000E+000
 318.00  0.0000E+000
 318.50  0.0000E+000
 319.00  0.0000E+000
 319.50  0.0000E+000
 320.00  0.0000E+000
 320.50  0.0000E+000
 321.00  0.0000E+000
 321.50  0.0000E+000
 322.00  0.0000E+000
 322.50  0.0000E+000
 323.00  0.0000E+000
 323.50  0.0000E+000
 324.00  0.0000E+000
 324.50  0.0000E+000
 325.00  0.0000E+000
 325.50  0.0000E+000
 326.00  0.0000E+000
 326.50  0.0000E+000
 327.00  0.0000E+000
 327.50  0.0000E+000
 328.00  0.0000E+000
 328.50  0.0000E+000
 329.00  0.0000E+000
 329.50  0.0000E+000
 330.00  0.0000E+000
 330.50  0.0000E+000
 331.00  0.0000E+000
 331.50  0.0000E+000
 332.00  0.0000E+000
 332.50  0.0000E+000
 333.00  0.0000E+000
 333.50  0.0000E+000
 334.00  0.0000E+000
 334.50  0.0000E+000
 335.00  0.0000E+000
 335.50  0.0000E+000
 336.00  0.0000E+000
 336.50  0.0000E+000
 337.00  0.0000E+000
 337.50  0.0000E+000
 338.00  0.0000E+000
 338.50  0.0000E+000
 339.00  0.0000E+000
 339.50  0.0000E+000
 340.00  0.0000E+000
 340.50  0.0000E+000
 341.00  0.0000E+000
 341.50  0.0000E+000
 342.00  0.0000E+000
 342.50  0.0000E+000
 343.00  0.0000E+000
 343.50  0.0000E+000
 344.00  0.0000E+000
 344.50  0.0000E+000
 345.00  0.0000E+000
 345.50  0.0000E+000
 346.00  0.0000E+000
 346.50  0.0000E+000
 347.00  0.0000E+000
 347.50  0.0000E+000
 348.00  0.0000E+000
 348.50  0.0000E+000
 349.00  0.0000E+000
 349.50  0.0000E+000
 350.00  0.0000E+000
 350.50  0.0000E+000
 351.00  0.0000E+000
 351.50  0.0000E+000
 352.00  0.0000E+000
 352.50  0.0000E+000
 353.00  0.0000E+000
 353.50  0.0000E+000
 354.00  0.0000E+000
 354.50  0.0000E+000
 355.00  0.0000E+000
 355.50  0.0000E+000
 356.00  0.0000E+000
 356.50  0.0000E+000
 357.00  0.0000E+000
 357.50  0.0000E+000
 358.00  0.0000E+000
 358.50  0.0000E+000
 359.00  0.0000E+000
 359.50  6.4906E-007
 360.00  9.5115E-006
 360.50  1.6061E-005
 361.00  1.6753E-005
 361.50  1.7593E-005
 362.00  1.8366E-005
 362.50  1.9397E-005
 363.00  2.0925E-005
 363.50  2.2670E-005
 364.00  2.4581E-005
 364.50  2.6788E-005
 365.00  2.9046E-005
 365.50  3.1556E-005
 366.00  3.4415E-005
 366.50  3.7583E-005
 367.00  4.1256E-005
 367.50  4.5443E-005
 368.00  5.0142E-005
 368.50  5.5776E-005
 369.00  6.2616E-005
 369.50  7.0886E-005
 370.00  8.0760E-005
 370.50  9.2461E-005
 371.00  1.0626E-004
 371.50  1.2228E-004
 372.00  1.4069E-004
 372.50  1.6198E-004
 373.00  1.8646E-004
 373.50  2.1404E-004
 374.00  2.4544E-004
 374.50  2.8171E-004
 375.00  3.2287E-004
 375.50  3.6913E-004
 376.00  4.2106E-004
 376.50  4.7942E-004
 377.00  5.4531E-004
 377.50  6.1930E-004
 378.00  7.0161E-004
 378.50  7.9263E-004
 379.00  8.9232E-004
 379.50  1.0021E-003
 380.00  1.1239E-003
 380.50  1.2605E-003
 381.00  1.4113E-003
 381.50  1.5732E-003
 382.00  1.7439E-003
 382.50  1.9193E-003
 383.00  2.0955E-003
 383.50  2.2653E-003
 384.00  2.4246E-003
 384.50  2.5701E-003
 385.00  2.6969E-003
 385.50  2.8044E-003
 386.00  2.8865E-003
 386.50  2.9404E-003
 387.00  2.9659E-003
 387.50  2.9592E-003
 388.00  2.9265E-003
 388.50  2.8697E-003
 389.00  2.7898E-003
 389.50  2.6907E-003
 390.00  2.5762E-003
 390.50  2.4523E-003
 391.00  2.3203E-003
 391.50  2.1854E-003
 392.00  2.0494E-003
 392.50  1.9170E-003
 393.00  1.7912E-003
 393.50  1.6727E-003
 394.00  1.5627E-003
 394.50  1.4611E-003
 395.00  1.3652E-003
 395.50  1.2753E-003
 396.00  1.1895E-003
 396.50  1.1083E-003
 397.00  1.0317E-003
 397.50  9.5950E-004
 398.00  8.9212E-004
 398.50  8.2854E-004
 399.00  7.6913E-004
 399.50  7.1290E-004
 400.00  6.6017E-004
 400.50  6.1050E-004
 401.00  5.6426E-004
 401.50  5.2104E-004
 402.00  4.8095E-004
 402.50  4.4383E-004
 403.00  4.0990E-004
 403.50  3.7920E-004
 404.00  3.5174E-004
 404.50  3.2730E-004
 405.00  3.0547E-004
 405.50  2.8524E-004
 406.00  2.6670E-004
 406.50  2.4948E-004
 407.00  2.3361E-004
 407.50  2.1923E-004
 408.00  2.0585E-004
 408.50  1.9337E-004
 409.00  1.8183E-004
 409.50  1.7107E-004
 410.00  1.6093E-004
 410.50  1.5138E-004
 411.00  1.4250E-004
 411.50  1.3370E-004
 412.00  1.2496E-004
 412.50  1.1661E-004
 413.00  1.0902E-004
 413.50  1.0171E-004
 414.00  9.5217E-005
 414.50  8.8963E-005
 415.00  8.3237E-005
 415.50  7.7879E-005
 416.00  7.2964E-005
 416.50  6.8707E-005
 417.00  6.5077E-005
 417.50  6.1696E-005
 418.00  5.8639E-005
 418.50  5.6078E-005
 419.00  5.3692E-005
 419.50  5.1318E-005
 420.00  4.9107E-005
 420.50  4.7109E-005
 421.00  4.5129E-005
 421.50  4.3292E-005
 422.00  4.1493E-005
 422.50  3.9800E-005
 423.00  3.8593E-005
 423.50  3.7251E-005
 424.00  3.5962E-005
 424.50  3.4788E-005
 425.00  3.3493E-005
 425.50  3.2368E-005
 426.00  3.1343E-005
 426.50  3.0380E-005
 427.00  2.9566E-005
 427.50  2.8628E-005
 428.00  2.7481E-005
 428.50  2.6680E-005
 429.00  2.6225E-005
 429.50  2.5787E-005
 430.00  2.5606E-005
 430.50  2.5556E-005
 431.00  2.4851E-005
 431.50  2.3667E-005
 432.00  2.2510E-005
 432.50  2.1653E-005
 433.00  2.1141E-005
 433.50  2.1174E-005
 434.00  2.1256E-005
 434.50  2.1042E-005
 435.00  2.0413E-005
 435.50  1.9346E-005
 436.00  1.8469E-005
 436.50  1.7835E-005
 437.00  1.7236E-005
 437.50  1.6933E-005
 438.00  1.6599E-005
 438.50  1.6163E-005
 439.00  1.5927E-005
 439.50  1.5736E-005
 440.00  1.5682E-005
 440.50  1.5601E-005
 441.00  1.5324E-005
 441.50  1.4999E-005
 442.00  1.4721E-005
 442.50  1.4219E-005
 443.00  1.3934E-005
 443.50  1.3621E-005
 444.00  1.3296E-005
 444.50  1.3273E-005
 445.00  1.3169E-005
 445.50  1.2894E-005
 446.00  1.2668E-005
 446.50  1.2154E-005
 447.00  1.1644E-005
 447.50  1.1105E-005
 448.00  1.0587E-005
 448.50  1.0215E-005
 449.00  9.8311E-006
 449.50  9.6866E-006
 450.00  9.5254E-006
 450.50  9.4640E-006
 451.00  9.4674E-006
 451.50  9.3860E-006
 452.00  9.2059E-006
 452.50  9.0930E-006
 453.00  8.8106E-006
 453.50  8.4605E-006
 454.00  8.2962E-006
 454.50  7.9831E-006
 455.00  7.6786E-006
 455.50  7.5361E-006
 456.00  7.5316E-006
 456.50  7.5757E-006
 457.00  7.7268E-006
 457.50  7.7176E-006
 458.00  7.5547E-006
 458.50  7.4065E-006
 459.00  6.9933E-006
 459.50  6.7585E-006
 460.00  6.6009E-006
 460.50  6.5423E-006
 461.00  6.6651E-006
 461.50  6.9641E-006
 462.00  7.4111E-006
 462.50  7.7538E-006
 463.00  7.8953E-006
 463.50  7.9037E-006
 464.00  7.6276E-006
 464.50  7.1050E-006
 465.00  6.5949E-006
 465.50  6.0977E-006
 466.00  5.8128E-006
 466.50  5.6337E-006
 467.00  5.6609E-006
 467.50  5.7089E-006
 468.00  5.6322E-006
 468.50  5.5326E-006
 469.00  5.5317E-006
 469.50  5.4706E-006
 470.00  5.4551E-006
 470.50  5.3990E-006
 471.00  5.2185E-006
 471.50  4.9995E-006
 472.00  4.9113E-006
 472.50  4.9075E-006
 473.00  4.9116E-006
 473.50  4.9968E-006
 474.00  5.0887E-006
 474.50  5.0460E-006
 475.00  5.0277E-006
 475.50  5.1064E-006
 476.00  5.1196E-006
 476.50  5.1145E-006
 477.00  5.0668E-006
 477.50  5.1485E-006
 478.00  5.2540E-006
 478.50  5.3873E-006
 479.00  5.5412E-006
 479.50  5.8265E-006
 480.00  6.0424E-006
 480.50  6.1670E-006
 481.00  6.3873E-006
 481.50  6.6840E-006
 482.00  6.8055E-006
 482.50  6.9877E-006
 483.00  7.1372E-006
 483.50  7.2530E-006
 484.00  7.3982E-006
 484.50  7.5413E-006
 485.00  7.7530E-006
 485.50  8.0065E-006
 486.00  8.0482E-006
 486.50  7.9370E-006
 487.00  7.9085E-006
 487.50  7.6681E-006
 488.00  7.3087E-006
 488.50  7.1145E-006
 489.00  6.9224E-006
 489.50  6.7079E-006
 490.00  6.7878E-006
 490.50  6.9839E-006
 491.00  7.0355E-006
 491.50  7.0825E-006
 492.00  7.2009E-006
 492.50  7.2362E-006
 493.00  7.3540E-006
 493.50  7.7162E-006
 494.00  8.0640E-006
 494.50  8.1825E-006
 495.00  8.2164E-006
 495.50  8.2071E-006
 496.00  8.1028E-006
 496.50  8.0491E-006
 497.00  8.0632E-006
 497.50  8.3119E-006
 498.00  8.5430E-006
 498.50  8.5346E-006
 499.00  8.6852E-006
 499.50  8.6526E-006
 500.00  8.6241E-006
 500.50  8.6790E-006
 501.00  8.7529E-006
 501.50  8.8257E-006
 502.00  8.7995E-006
 502.50  8.7161E-006
 503.00  8.7700E-006
 503.50  8.8043E-006
 504.00  8.8323E-006
 504.50  9.1399E-006
 505.00  9.0837E-006
 505.50  8.9916E-006
 506.00  8.9966E-006
 506.50  8.9787E-006
 507.00  9.0009E-006
 507.50  9.0403E-006
 508.00  9.0413E-006
 508.50  8.8395E-006
 509.00  8.6218E-006
 509.50  8.6541E-006
 510.00  8.6991E-006
 510.50  8.6827E-006
 511.00  8.7617E-006
 511.50  8.8675E-006
 512.00  8.9763E-006
 512.50  9.1437E-006
 513.00  9.3568E-006
 513.50  9.1823E-006
 514.00  8.8457E-006
 514.50  8.5451E-006
 515.00  8.1711E-006
 515.50  7.9031E-006
 516.00  8.0431E-006
 516.50  8.1140E-006
 517.00  8.1590E-006
 517.50  8.2184E-006
 518.00  8.2801E-006
 518.50  8.1966E-006
 519.00  7.9837E-006
 519.50  7.9950E-006
 520.00  8.1178E-006
 520.50  7.9825E-006
 521.00  7.9996E-006
 521.50  8.0557E-006
 522.00  7.9649E-006
 522.50  7.9477E-006
 523.00  8.0536E-006
 523.50  8.0085E-006
 524.00  7.8140E-006
 524.50  7.4993E-006
 525.00  7.0500E-006
 525.50  6.6799E-006
 526.00  6.6562E-006
 526.50  6.7777E-006
 527.00  6.9918E-006
 527.50  7.2967E-006
 528.00  7.4888E-006
 528.50  7.5685E-006
 529.00  7.7245E-006
 529.50  7.8062E-006
 530.00  7.8107E-006
 530.50  7.7861E-006
 531.00  7.7884E-006
 531.50  7.8052E-006
 532.00  7.7247E-006
 532.50  7.6505E-006
 533.00  7.6859E-006
 533.50  7.6667E-006
 534.00  7.5803E-006
 534.50  7.5840E-006
 535.00  7.5564E-006
 535.50  7.6133E-006
 536.00  7.6252E-006
 536.50  7.6859E-006
 537.00  7.6384E-006
 537.50  7.5783E-006
 538.00  7.5657E-006
 538.50  7.3602E-006
 539.00  7.1353E-006
 539.50  6.9597E-006
 540.00  6.5562E-006
 540.50  6.3386E-006
 541.00  6.2385E-006
 541.50  6.4151E-006
 542.00  6.5532E-006
 542.50  6.5706E-006
 543.00  6.6870E-006
 543.50  6.6935E-006
 544.00  6.6325E-006
 544.50  6.6109E-006
 545.00  6.5717E-006
 545.50  6.5436E-006
 546.00  6.7487E-006
 546.50  6.9324E-006
 547.00  7.0748E-006
 547.50  7.3449E-006
 548.00  7.3848E-006
 548.50  7.0592E-006
 549.00  6.9840E-006
 549.50  7.0615E-006
 550.00  7.3466E-006
 550.50  8.0733E-006
 551.00  8.5373E-006
 551.50  8.4738E-006
 552.00  8.3082E-006
 552.50  8.1434E-006
 553.00  8.0131E-006
 553.50  8.1632E-006
 554.00  8.6459E-006
 554.50  8.6967E-006
 555.00  8.5350E-006
 555.50  8.3813E-006
 556.00  7.8060E-006
 556.50  7.2258E-006
 557.00  6.6174E-006
 557.50  6.1886E-006
 558.00  5.9891E-006
 558.50  6.0177E-006
 559.00  5.9669E-006
 559.50  6.0861E-006
 560.00  6.1418E-006
 560.50  6.1633E-006
 561.00  6.2108E-006
 561.50  6.2179E-006
 562.00  6.0132E-006
 562.50  5.4563E-006
 563.00  5.1253E-006
 563.50  4.6294E-006
 564.00  4.4091E-006
 564.50  4.4616E-006
 565.00  4.9079E-006
 565.50  5.4583E-006
 566.00  6.0627E-006
 566.50  6.2841E-006
 567.00  6.2418E-006
 567.50  6.2426E-006
 568.00  6.2703E-006
 568.50  5.9872E-006
 569.00  6.0392E-006
 569.50  5.5727E-006
 570.00  5.0725E-006
 570.50  4.4769E-006
 571.00  4.3773E-006
 571.50  4.4232E-006
 572.00  4.2987E-006
 572.50  4.3882E-006
 573.00  4.6833E-006
 573.50  5.0538E-006
 574.00  5.7662E-006
 574.50  6.4148E-006
 575.00  6.7698E-006
 575.50  7.0189E-006
 576.00  6.4502E-006
 576.50  6.3232E-006
 577.00  6.1746E-006
 577.50  5.5800E-006
 578.00  5.1635E-006
 578.50  4.8136E-006
 579.00  4.1490E-006
 579.50  3.9418E-006
 580.00  4.3202E-006
 580.50  4.6166E-006
 581.00  5.0226E-006
 581.50  5.7284E-006
 582.00  6.4921E-006
 582.50  7.4026E-006
 583.00  8.4414E-006
 583.50  9.3040E-006
 584.00  9.5564E-006
 584.50  8.8876E-006
 585.00  7.9696E-006
 585.50  7.2478E-006
 586.00  6.2584E-006
 586.50  6.2336E-006
 587.00  5.8758E-006
 587.50  5.4349E-006
 588.00  5.0173E-006
 588.50  4.8421E-006
 589.00  5.0143E-006
 589.50  5.7196E-006
 590.00  6.4246E-006
 590.50  7.0607E-006
 591.00  7.6331E-006
 591.50  8.2967E-006
 592.00  8.5976E-006
 592.50  9.0827E-006
 593.00  8.7306E-006
 593.50  8.4415E-006
 594.00  7.6499E-006
 594.50  6.8948E-006
 595.00  6.3850E-006
 595.50  6.3907E-006
 596.00  5.8425E-006
 596.50  5.1814E-006
 597.00  4.8085E-006
 597.50  3.9630E-006
 598.00  3.4453E-006
 598.50  3.2337E-006
 599.00  3.4513E-006
 599.50  3.3672E-006
 600.00  3.4559E-006
 600.50  3.5541E-006
 601.00  3.4460E-006
 601.50  3.0054E-006
 602.00  2.7735E-006
 602.50  2.6195E-006
 603.00  2.5318E-006
 603.50  2.6704E-006
 604.00  2.9510E-006
 604.50  2.7169E-006
 605.00  2.4826E-006
 605.50  2.2443E-006
 606.00  2.0788E-006
 606.50  2.2240E-006
 607.00  2.5498E-006
 607.50  2.8337E-006
 608.00  2.9880E-006
 608.50  3.0562E-006
 609.00  3.0474E-006
 609.50  3.1271E-006
 610.00  3.1048E-006
 610.50  2.7971E-006
 611.00  2.6313E-006
 611.50  2.8103E-006
 612.00  2.7205E-006
 612.50  3.0857E-006
 613.00  3.4087E-006
 613.50  3.4637E-006
 614.00  3.1974E-006
 614.50  2.9747E-006
 615.00  3.0080E-006
 615.50  3.1735E-006
 616.00  3.5304E-006
 616.50  3.8584E-006
 617.00  4.4007E-006
 617.50  4.9083E-006
 618.00  5.4623E-006
 618.50  6.1707E-006
 619.00  7.1165E-006
 619.50  7.1780E-006
 620.00  7.4593E-006
 620.50  7.2817E-006
 621.00  6.6650E-006
 621.50  6.3716E-006
 622.00  5.9042E-006
 622.50  5.8171E-006
 623.00  6.3905E-006
 623.50  6.6171E-006
 624.00  6.2981E-006
 624.50  5.8528E-006
 625.00  5.0718E-006
 625.50  3.9471E-006
 626.00  3.7076E-006
 626.50  3.2638E-006
 627.00  2.7443E-006
 627.50  2.6340E-006
 628.00  2.5894E-006
 628.50  2.8065E-006
 629.00  3.2918E-006
 629.50  4.2361E-006
 630.00  4.6425E-006
 630.50  4.5907E-006
 631.00  4.6778E-006
 631.50  4.9864E-006
 632.00  5.3747E-006
 632.50  5.8203E-006
 633.00  6.3063E-006
 633.50  6.9844E-006
 634.00  7.2835E-006
 634.50  6.9220E-006
 635.00  6.8985E-006
 635.50  7.2384E-006
 636.00  6.6069E-006
 636.50  6.6210E-006
 637.00  6.6120E-006
 637.50  6.2775E-006
 638.00  5.6111E-006
 638.50  4.7289E-006
 639.00  4.1162E-006
 639.50  4.2197E-006
 640.00  4.3378E-006
 640.50  4.7955E-006
 641.00  5.3835E-006
 641.50  5.6559E-006
 642.00  5.6397E-006
 642.50  5.8244E-006
 643.00  6.9039E-006
 643.50  8.6838E-006
 644.00  9.8676E-006
 644.50  1.0082E-005
 645.00  1.0245E-005
 645.50  9.4487E-006
 646.00  8.2610E-006
 646.50  7.6263E-006
 647.00  7.2386E-006
 647.50  6.6582E-006
 648.00  6.3073E-006
 648.50  6.1625E-006
 649.00  5.9589E-006
 649.50  5.9921E-006
 650.00  5.4404E-006
 650.50  5.9529E-006
 651.00  6.7814E-006
 651.50  8.0341E-006
 652.00  8.9709E-006
 652.50  9.4072E-006
 653.00  8.4370E-006
 653.50  6.5604E-006
 654.00  5.1237E-006
 654.50  5.2698E-006
 655.00  6.3801E-006
 655.50  8.2624E-006
 656.00  1.0633E-005
 656.50  1.1297E-005
 657.00  1.1617E-005
 657.50  1.1349E-005
 658.00  1.0310E-005
 658.50  1.0044E-005
 659.00  1.0183E-005
 659.50  9.5722E-006
 660.00  8.8478E-006
 660.50  8.5667E-006
 661.00  7.8151E-006
 661.50  6.9176E-006
 662.00  6.7457E-006
 662.50  6.7073E-006
 663.00  6.2438E-006
 663.50  4.4262E-006
 664.00  3.4458E-006
 664.50  2.4536E-006
 665.00  1.1453E-006
 665.50  1.4809E-007
 666.00  0.0000E+000
 666.50  0.0000E+000
 667.00  0.0000E+000
 667.50  0.0000E+000
 668.00  0.0000E+000
 668.50  0.0000E+000
 669.00  0.0000E+000
 669.50  0.0000E+000
 670.00  0.0000E+000
 670.50  0.0000E+000
 671.00  0.0000E+000
 671.50  0.0000E+000
 672.00  0.0000E+000
 672.50  0.0000E+000
 673.00  0.0000E+000
 673.50  0.0000E+000
 674.00  0.0000E+000
 674.50  0.0000E+000
 675.00  0.0000E+000
 675.50  0.0000E+000
 676.00  0.0000E+000
 676.50  0.0000E+000
 677.00  0.0000E+000
 677.50  0.0000E+000
 678.00  0.0000E+000
 678.50  0.0000E+000
 679.00  0.0000E+000
 679.50  0.0000E+000
 680.00  0.0000E+000
 680.50  3.0498E-008
 681.00  9.2582E-007
 681.50  2.8505E-006
 682.00  4.5675E-006
 682.50  6.0849E-006
 683.00  7.5504E-006
 683.50  8.5287E-006
 684.00  1.0030E-005
 684.50  1.0779E-005
 685.00  1.0780E-005
 685.50  9.5679E-006
 686.00  8.2714E-006
 686.50  5.0911E-006
 687.00  1.8133E-006
 687.50  0.0000E+000
 688.00  0.0000E+000
 688.50  0.0000E+000
 689.00  0.0000E+000
 689.50  0.0000E+000
 690.00  0.0000E+000
 690.50  2.0918E-007
 691.00  1.6305E-006
 691.50  2.6441E-006
 692.00  3.5642E-006
 692.50  3.0758E-006
 693.00  1.5009E-006
 693.50  9.4064E-007
 694.00  3.8170E-007
 694.50  0.0000E+000
 695.00  0.0000E+000
 695.50  0.0000E+000
 696.00  0.0000E+000
 696.50  0.0000E+000
 697.00  0.0000E+000
 697.50  0.0000E+000
 698.00  0.0000E+000
 698.50  0.0000E+000
 699.00  0.0000E+000
 699.50  0.0000E+000
 700.00  0.0000E+000
 700.50  0.0000E+000
 701.00  0.0000E+000
 701.50  0.0000E+000
 702.00  0.0000E+000
 702.50  0.0000E+000
 703.00  0.0000E+000
 703.50  2.5749E-007
 704.00  8.5250E-007
 704.50  1.6002E-006
 705.00  3.5945E-006
 705.50  5.2397E-006
 706.00  6.3549E-006
 706.50  7.1489E-006
 707.00  8.4197E-006
 707.50  8.8324E-006
 708.00  9.2810E-006
 708.50  1.0226E-005
 709.00  1.0345E-005
 709.50  9.7447E-006
 710.00  8.6563E-006
 710.50  7.8247E-006
 711.00  6.5329E-006
 711.50  5.2951E-006
 712.00  4.5261E-006
 712.50  3.6539E-006
 713.00  1.7972E-006
 713.50  2.6907E-007
 714.00  0.0000E+000
 714.50  0.0000E+000
 715.00  0.0000E+000
 715.50  5.5899E-007
 716.00  4.0462E-006
 716.50  6.4853E-006
 717.00  8.6020E-006
 717.50  9.4351E-006
 718.00  8.8887E-006
 718.50  7.1675E-006
 719.00  5.1688E-006
 719.50  3.9618E-006
 720.00  3.1681E-006
 720.50  3.1125E-006
 721.00  3.9399E-006
 721.50  4.9143E-006
 722.00  5.2693E-006
 722.50  6.4101E-006
 723.00  6.6025E-006
 723.50  7.3669E-006
 724.00  6.8567E-006
 724.50  6.1610E-006
 725.00  4.5333E-006
 725.50  2.0559E-006
 726.00  0.0000E+000
 726.50  0.0000E+000
 727.00  0.0000E+000
 727.50  0.0000E+000
 728.00  0.0000E+000
 728.50  0.0000E+000
 729.00  0.0000E+000
 729.50  0.0000E+000
 730.00  0.0000E+000
 730.50  0.0000E+000
 731.00  0.0000E+000
 731.50  0.0000E+000
 732.00  0.0000E+000
 732.50  0.0000E+000
 733.00  0.0000E+000
 733.50  0.0000E+000
 734.00  0.0000E+000
 734.50  0.0000E+000
 735.00  0.0000E+000
 735.50  0.0000E+000
 736.00  0.0000E+000
 736.50  0.0000E+000
 737.00  0.0000E+000
 737.50  0.0000E+000
 738.00  0.0000E+000
 738.50  0.0000E+000
 739.00  1.7923E-006
 739.50  1.1597E-006
 740.00  2.4886E-006
 740.50  9.6798E-007
 741.00  4.9369E-007
 741.50  3.1020E-007
 742.00  1.0810E-006
 742.50  7.6846E-007
 743.00  2.4932E-007
 743.50  0.0000E+000
 744.00  0.0000E+000
 744.50  8.5487E-007
 745.00  2.3653E-006
 745.50  5.7084E-006
 746.00  7.5028E-006
 746.50  9.0059E-006
 747.00  8.3257E-006
 747.50  1.0837E-005
 748.00  1.1837E-005
 748.50  1.2954E-005
 749.00  1.4359E-005
 749.50  1.4848E-005
 750.00  1.2561E-005
 750.50  1.0357E-005
 751.00  8.8972E-006
 751.50  7.1252E-006
 752.00  6.5646E-006
 752.50  5.6310E-006
 753.00  4.3590E-006
 753.50  2.3255E-006
 754.00  3.8407E-007
 754.50  0.0000E+000
 755.00  0.0000E+000
 755.50  0.0000E+000
 756.00  0.0000E+000
 756.50  0.0000E+000
 757.00  0.0000E+000
 757.50  0.0000E+000
 758.00  0.0000E+000
 758.50  0.0000E+000
 759.00  0.0000E+000
 759.50  0.0000E+000
 760.00  0.0000E+000
 760.50  0.0000E+000
 761.00  0.0000E+000
 761.50  0.0000E+000
 762.00  0.0000E+000
 762.50  0.0000E+000
 763.00  0.0000E+000
 763.50  0.0000E+000
 764.00  0.0000E+000
 764.50  0.0000E+000
 765.00  0.0000E+000
 765.50  0.0000E+000
 766.00  0.0000E+000
 766.50  0.0000E+000
 767.00  0.0000E+000
 767.50  9.1546E-007
 768.00  4.2671E-006
 768.50  6.7528E-006
 769.00  6.9285E-006
 769.50  7.4114E-006
 770.00  6.1665E-006
 770.50  2.5964E-006
 771.00  3.9351E-007
 771.50  0.0000E+000
 772.00  0.0000E+000
 772.50  0.0000E+000
 773.00  1.2846E-006
 773.50  3.9081E-006
 774.00  7.3237E-006
 774.50  9.1760E-006
 775.00  6.8012E-006
 775.50  4.4397E-006
 776.00  3.5482E-006
 776.50  7.4710E-007
 777.00  0.0000E+000
 777.50  4.5212E-007
 778.00  1.3013E-006
 778.50  1.8346E-006
 779.00  1.6361E-006
 779.50  4.7340E-007
 780.00  0.0000E+000
 780.50  0.0000E+000
 781.00  0.0000E+000
 781.50  0.0000E+000
 782.00  0.0000E+000
 782.50  0.0000E+000
 783.00  0.0000E+000
 783.50  0.0000E+000
 784.00  0.0000E+000
 784.50  0.0000E+000
 785.00  0.0000E+000
 785.50  8.4810E-008
 786.00  9.4966E-007
 786.50  3.5934E-006
 787.00  6.2337E-006
 787.50  7.6176E-006
 788.00  9.6987E-006
 788.50  1.1258E-005
 789.00  1.1536E-005
 789.50  9.8038E-006
 790.00  7.0627E-006
 790.50  5.6701E-006
 791.00  4.0941E-006
 791.50  8.6659E-007
 792.00  7.1621E-009
 792.50  0.0000E+000
 793.00  0.0000E+000
 793.50  3.9203E-008
 794.00  1.0683E-006
 794.50  5.3715E-006
 795.00  9.1258E-006
 795.50  1.0620E-005
 796.00  1.2062E-005
 796.50  1.2491E-005
 797.00  8.2903E-006
 797.50  2.2575E-006
 798.00  0.0000E+000
 798.50  0.0000E+000
 799.00  0.0000E+000
 799.50  0.0000E+000
 800.00  0.0000E+000
 800.50  0.0000E+000
 801.00  0.0000E+000
 801.50  0.0000E+000
 802.00  0.0000E+000
 802.50  0.0000E+000
 803.00  0.0000E+000
 803.50  0.0000E+000
 804.00  0.0000E+000
 804.50  0.0000E+000
 805.00  0.0000E+000
 805.50  0.0000E+000
 806.00  0.0000E+000
 806.50  0.0000E+000
 807.00  4.9581E-010
 807.50  4.7325E-007
 808.00  8.0076E-007
 808.50  1.0029E-006
 809.00  2.7600E-007
 809.50  0.0000E+000
 810.00  6.4686E-007
 810.50  2.3713E-006
 811.00  4.4575E-006
 811.50  9.2343E-006
 812.00  1.1283E-005
 812.50  1.0837E-005
 813.00  1.1539E-005
 813.50  9.5121E-006
 814.00  5.8228E-006
 814.50  1.8294E-006
 815.00  0.0000E+000
 815.50  0.0000E+000
 816.00  0.0000E+000
 816.50  0.0000E+000
 817.00  0.0000E+000
 817.50  0.0000E+000
 818.00  0.0000E+000
 818.50  0.0000E+000
 819.00  0.0000E+000
 819.50  0.0000E+000
 820.00  0.0000E+000
 820.50  0.0000E+000
 821.00  1.8400E-006
 821.50  5.5059E-006
 822.00  1.0228E-005
 822.50  1.2666E-005
 823.00  1.4457E-005
 823.50  1.4224E-005
 824.00  1.2759E-005
 824.50  1.2890E-005
 825.00  1.3606E-005
 825.50  1.4823E-005
 826.00  1.6932E-005
 826.50  1.9152E-005
 827.00  2.0436E-005
 827.50  1.8291E-005
 828.00  1.4835E-005
 828.50  1.0352E-005
 829.00  4.8170E-006
 829.50  7.9696E-007
 830.00  0.0000E+000
 830.50  0.0000E+000
 831.00  0.0000E+000
 831.50  0.0000E+000
 832.00  0.0000E+000
 832.50  0.0000E+000
 833.00  0.0000E+000
 833.50  0.0000E+000
 834.00  0.0000E+000
 834.50  0.0000E+000
 835.00  0.0000E+000
 835.50  0.0000E+000
 836.00  0.0000E+000
 836.50  0.0000E+000
 837.00  0.0000E+000
 837.50  0.0000E+000
 838.00  0.0000E+000
 838.50  0.0000E+000
 839.00  0.0000E+000
 839.50  0.0000E+000
 840.00  0.0000E+000
 840.50  0.0000E+000
 841.00  0.0000E+000
 841.50  0.0000E+000
 842.00  0.0000E+000
 842.50  0.0000E+000
 843.00  1.0386E-006
 843.50  5.3855E-006
 844.00  8.0311E-006
 844.50  9.8537E-006
 845.00  9.1065E-006
 845.50  5.6372E-006
 846.00  1.3700E-006
 846.50  0.0000E+000
 847.00  0.0000E+000
 847.50  0.0000E+000
 848.00  0.0000E+000
 848.50  0.0000E+000
 849.00  0.0000E+000
 849.50  0.0000E+000
 850.00  3.5776E-007
 850.50  3.3800E-006
 851.00  7.3101E-006
 851.50  1.3040E-005
 852.00  1.6783E-005
 852.50  1.7394E-005
 853.00  1.8646E-005
 853.50  1.5753E-005
 854.00  1.5253E-005
 854.50  1.4057E-005
 855.00  1.1500E-005
 855.50  5.6911E-006
 856.00  2.4032E-006
 856.50  0.0000E+000
 857.00  0.0000E+000
 857.50  0.0000E+000
 858.00  0.0000E+000
 858.50  0.0000E+000
 859.00  0.0000E+000
 859.50  0.0000E+000
 860.00  0.0000E+000
 860.50  0.0000E+000
 861.00  0.0000E+000
 861.50  0.0000E+000
 862.00  0.0000E+000
 862.50  0.0000E+000
 863.00  0.0000E+000
 863.50  0.0000E+000
 864.00  0.0000E+000
 864.50  0.0000E+000
 865.00  0.0000E+000
 865.50  0.0000E+000
 866.00  0.0000E+000
 866.50  0.0000E+000
 867.00  0.0000E+000
 867.50  0.0000E+000
 868.00  0.0000E+000
 868.50  0.0000E+000
 869.00  0.0000E+000
 869.50  0.0000E+000
 870.00  0.0000E+000
 870.50  0.0000E+000
 871.00  0.0000E+000
 871.50  0.0000E+000
 872.00  0.0000E+000
 872.50  0.0000E+000
 873.00  0.0000E+000
 873.50  0.0000E+000
 874.00  0.0000E+000
 874.50  0.0000E+000
 875.00  0.0000E+000
 875.50  0.0000E+000
 876.00  7.0983E-006
 876.50  1.8516E-005
 877.00  2.7533E-005
 877.50  3.4171E-005
 878.00  3.3967E-005
 878.50  3.5928E-005
 879.00  3.6182E-005
 879.50  3.6688E-005
 880.00  3.3963E-005
 880.50  2.9504E-005
 881.00  2.1003E-005
 881.50  1.0504E-005
 882.00  1.7618E-006
 882.50  0.0000E+000
 883.00  0.0000E+000
 883.50  0.0000E+000
 884.00  0.0000E+000
 884.50  0.0000E+000
 885.00  0.0000E+000
 885.50  0.0000E+000
 886.00  0.0000E+000
 886.50  0.0000E+000
 887.00  0.0000E+000
 887.50  0.0000E+000
 888.00  2.1852E-006
 888.50  6.5708E-006
 889.00  9.7264E-006
 889.50  1.4621E-005
 890.00  1.6245E-005
 890.50  1.5541E-005
 891.00  1.4032E-005
 891.50  1.3368E-005
 892.00  1.2489E-005
 892.50  1.1541E-005
 893.00  9.0482E-006
 893.50  2.0648E-006
 894.00  0.0000E+000
 894.50  0.0000E+000
 895.00  0.0000E+000
 895.50  0.0000E+000
 896.00  4.0586E-006
 896.50  1.1132E-005
 897.00  1.6203E-005
 897.50  1.9758E-005
 898.00  2.0042E-005
 898.50  1.8325E-005
 899.00  1.4817E-005
 899.50  1.2647E-005
 900.00  1.1859E-005
 900.50  1.3572E-005
 901.00  1.3669E-005
 901.50  1.3230E-005
 902.00  1.0095E-005
 902.50  5.1772E-006
 903.00  8.1007E-008
 903.50  0.0000E+000
 904.00  0.0000E+000
 904.50  0.0000E+000
 905.00  0.0000E+000
 905.50  0.0000E+000
 906.00  0.0000E+000
 906.50  0.0000E+000
 907.00  8.5537E-008
 907.50  4.1680E-006
 908.00  1.6057E-005
 908.50  2.4227E-005
 909.00  2.8168E-005
 909.50  3.0811E-005
 910.00  2.7907E-005
 910.50  2.2240E-005
 911.00  1.9204E-005
 911.50  1.6186E-005
 912.00  1.2908E-005
 912.50  1.3272E-005
 913.00  1.2238E-005
 913.50  6.6185E-006
 914.00  1.0660E-006
 914.50  0.0000E+000
 915.00  0.0000E+000
 915.50  0.0000E+000
 916.00  0.0000E+000
 916.50  0.0000E+000
 917.00  5.4424E-007
 917.50  8.1697E-006
 918.00  7.7242E-006
 918.50  5.2630E-006
 919.00  5.1648E-006
 919.50  6.4715E-006
 920.00  7.8658E-006
 920.50  1.0422E-005
 921.00  1.3660E-005
 921.50  1.3727E-005
 922.00  1.6886E-005
 922.50  1.9908E-005
 923.00  2.3532E-005
 923.50  2.6574E-005
 924.00  2.4516E-005
 924.50  1.6203E-005
 925.00  1.1113E-005
 925.50  6.2502E-006
 926.00  1.2673E-006
 926.50  0.0000E+000
 927.00  3.9856E-007
 927.50  8.7899E-007
 928.00  3.1572E-006
 928.50  1.1971E-006
 929.00  8.7788E-008
 929.50  0.0000E+000
 930.00  0.0000E+000
 930.50  0.0000E+000
 931.00  0.0000E+000
 931.50  0.0000E+000
 932.00  0.0000E+000
 932.50  0.0000E+000
 933.00  0.0000E+000
 933.50  0.0000E+000
 934.00  0.0000E+000
 934.50  0.0000E+000
 935.00  0.0000E+000
 935.50  0.0000E+000
 936.00  0.0000E+000
 936.50  0.0000E+000
 937.00  0.0000E+000
 937.50  0.0000E+000
 938.00  0.0000E+000
 938.50  0.0000E+000
 939.00  0.0000E+000
 939.50  0.0000E+000
 940.00  0.0000E+000
 940.50  0.0000E+000
 941.00  0.0000E+000
 941.50  0.0000E+000
 942.00  0.0000E+000
 942.50  0.0000E+000
 943.00  0.0000E+000
 943.50  0.0000E+000
 944.00  0.0000E+000
 944.50  0.0000E+000
 945.00  0.0000E+000
 945.50  0.0000E+000
 946.00  0.0000E+000
 946.50  0.0000E+000
 947.00  0.0000E+000
 947.50  0.0000E+000
 948.00  0.0000E+000
 948.50  0.0000E+000
 949.00  0.0000E+000
 949.50  0.0000E+000
 950.00  0.0000E+000
 950.50  0.0000E+000
 951.00  0.0000E+000
 951.50  0.0000E+000
 952.00  5.0508E-007
 952.50  1.1100E-006
 953.00  0.0000E+000
 953.50  0.0000E+000
 954.00  0.0000E+000
 954.50  0.0000E+000
 955.00  0.0000E+000
 955.50  0.0000E+000
 956.00  7.0938E-006
 956.50  1.9661E-005
 957.00  2.6686E-005
 957.50  2.1484E-005
 958.00  1.1453E-005
 958.50  5.4990E-006
 959.00  1.1773E-006
 959.50  0.0000E+000
 960.00  0.0000E+000
 960.50  0.0000E+000
 961.00  0.0000E+000
 961.50  0.0000E+000
 962.00  0.0000E+000
 962.50  0.0000E+000
 963.00  0.0000E+000
 963.50  0.0000E+000
 964.00  0.0000E+000
 964.50  0.0000E+000
 965.00  0.0000E+000
 965.50  0.0000E+000
 966.00  0.0000E+000
 966.50  0.0000E+000
 967.00  0.0000E+000
 967.50  1.1581E-006
 968.00  6.1832E-006
 968.50  7.8042E-006
 969.00  3.6114E-006
 969.50  0.0000E+000
 970.00  3.7496E-007
 970.50  6.4152E-007
 971.00  0.0000E+000
 971.50  1.3190E-005
 972.00  2.7066E-005
 972.50  2.8587E-005
 973.00  4.5701E-005
 973.50  5.6108E-005
 974.00  4.4153E-005
 974.50  3.4954E-005
 975.00  2.2155E-005
 975.50  5.1244E-006
 976.00  0.0000E+000
 976.50  0.0000E+000
 977.00  0.0000E+000
 977.50  0.0000E+000
 978.00  0.0000E+000
 978.50  0.0000E+000
 979.00  0.0000E+000
 979.50  0.0000E+000
 980.00  0.0000E+000
 980.50  0.0000E+000
 981.00  0.0000E+000
 981.50  0.0000E+000
 982.00  0.0000E+000
 982.50  0.0000E+000
 983.00  0.0000E+000
 983.50  0.0000E+000
 984.00  0.0000E+000
 984.50  0.0000E+000
 985.00  0.0000E+000
 985.50  0.0000E+000
 986.00  0.0000E+000
 986.50  0.0000E+000
 987.00  1.8358E-005
 987.50  8.7489E-005
 988.00  1.5214E-004
 988.50  1.9014E-004
 989.00  1.8867E-004
 989.50  1.7108E-004
 990.00  1.3869E-004
 990.50  8.7847E-005
 991.00  6.1838E-005
 991.50  6.3230E-005
 992.00  6.3467E-005
 992.50  5.5001E-005
 993.00  6.3477E-005
 993.50  5.7875E-005
 994.00  4.0657E-005
 994.50  4.8267E-005
 995.00  5.5306E-005
 995.50  3.8836E-005
 996.00  2.5416E-005
 996.50  5.6541E-006
 997.00  0.0000E+000
 997.50  0.0000E+000
 998.00  0.0000E+000
 998.50  0.0000E+000
 999.00  0.0000E+000
 999.50  0.0000E+000
1000.00  0.0000E+000
1000.50  0.0000E+000
1001.00  0.0000E+000
1001.50  0.0000E+000
1002.00  0.0000E+000
1002.50  0.0000E+000
1003.00  0.0000E+000
1003.50  0.0000E+000
1004.00  0.0000E+000
1004.50  0.0000E+000
1005.00  0.0000E+000
1005.50  0.0000E+000
1006.00  0.0000E+000
1006.50  0.0000E+000
1007.00  0.0000E+000
1007.50  0.0000E+000
1008.00  0.0000E+000
1008.50  0.0000E+000
1009.00  0.0000E+000
1009.50  0.0000E+000
1010.00  0.0000E+000
1010.50  0.0000E+000
1011.00  0.0000E+000
1011.50  0.0000E+000
1012.00  0.0000E+000
1012.50  0.0000E+000
1013.00  0.0000E+000
1013.50  0.0000E+000
1014.00  0.0000E+000
1014.50  0.0000E+000
1015.00  0.0000E+000
1015.50  0.0000E+000
1016.00  0.0000E+000
1016.50  0.0000E+000
1017.00  0.0000E+000
1017.50  0.0000E+000
1018.00  0.0000E+000
1018.50  0.0000E+000
1019.00  0.0000E+000
1019.50  0.0000E+000
1020.00  0.0000E+000
1020.50  0.0000E+000
1021.00  0.0000E+000
1021.50  0.0000E+000
1022.00  0.0000E+000
1022.50  0.0000E+000
1023.00  0.0000E+000
1023.50  0.0000E+000
1024.00  0.0000E+000
1024.50  0.0000E+000
1025.00  0.0000E+000
1025.50  0.0000E+000
1026.00  0.0000E+000
1026.50  0.0000E+000
1027.00  0.0000E+000
1027.50  0.0000E+000
1028.00  0.0000E+000
1028.50  0.0000E+000
1029.00  0.0000E+000
1029.50  0.0000E+000
1030.00  0.0000E+000
1030.50  0.0000E+000
1031.00  0.0000E+000
1031.50  0.0000E+000
1032.00  0.0000E+000
1032.50  0.0000E+000
1033.00  0.0000E+000
1033.50  0.0000E+000
1034.00  0.0000E+000
1034.50  0.0000E+000
1035.00  0.0000E+000
1035.50  0.0000E+000
1036.00  0.0000E+000
1036.50  0.0000E+000
1037.00  0.0000E+000
1037.50  0.0000E+000
1038.00  0.0000E+000
1038.50  0.0000E+000
1039.00  0.0000E+000
1039.50  0.0000E+000
1040.00  0.0000E+000
1040.50  0.0000E+000
1041.00  0.0000E+000
1041.50  0.0000E+000
1042.00  0.0000E+000
1042.50  0.0000E+000
1043.00  0.0000E+000
1043.50  0.0000E+000
1044.00  0.0000E+000
1044.50  0.0000E+000
1045.00  0.0000E+000
1045.50  0.0000E+000
1046.00  0.0000E+000
1046.50  0.0000E+000
1047.00  0.0000E+000
1047.50  0.0000E+000
1048.00  0.0000E+000
1048.50  0.0000E+000
1049.00  0.0000E+000
1049.50  0.0000E+000
1050.00  0.0000E+000
1050.50  0.0000E+000
1051.00  0.0000E+000
1051.50  0.0000E+000
1052.00  0.0000E+000
1052.50  0.0000E+000
1053.00  0.0000E+000
1053.50  0.0000E+000
1054.00  0.0000E+000
1054.50  0.0000E+000
1055.00  0.0000E+000
1055.50  0.0000E+000
1056.00  0.0000E+000
1056.50  0.0000E+000
1057.00  0.0000E+000
1057.50  0.0000E+000
1058.00  0.0000E+000
1058.50  0.0000E+000
1059.00  0.0000E+000
1059.50  0.0000E+000
1060.00  0.0000E+000
1060.50  0.0000E+000
1061.00  0.0000E+000
1061.50  0.0000E+000
1062.00  0.0000E+000
1062.50  0.0000E+000
1063.00  0.0000E+000
1063.50  0.0000E+000
1064.00  0.0000E+000
1064.50  0.0000E+000
1065.00  0.0000E+000
1065.50  0.0000E+000
1066.00  0.0000E+000
1066.50  0.0000E+000
1067.00  0.0000E+000
1067.50  0.0000E+000
1068.00  0.0000E+000
1068.50  0.0000E+000
1069.00  0.0000E+000
1069.50  0.0000E+000
1070.00  0.0000E+000
1070.50  0.0000E+000
1071.00  0.0000E+000
1071.50  0.0000E+000
1072.00  0.0000E+000
1072.50  0.0000E+000
1073.00  0.0000E+000
1073.50  0.0000E+000
1074.00  0.0000E+000
1074.50  0.0000E+000
1075.00  0.0000E+000
1075.50  0.0000E+000
1076.00  0.0000E+000
1076.50  0.0000E+000
1077.00  0.0000E+000
1077.50  0.0000E+000
1078.00  0.0000E+000
1078.50  0.0000E+000
1079.00  0.0000E+000
1079.50  0.0000E+000
1080.00  0.0000E+000
1080.50  0.0000E+000
1081.00  0.0000E+000
1081.50  0.0000E+000
1082.00  0.0000E+000
1082.50  0.0000E+000
1083.00  0.0000E+000
1083.50  0.0000E+000
1084.00  0.0000E+000
1084.50  0.0000E+000
1085.00  0.0000E+000
1085.50  0.0000E+000
1086.00  0.0000E+000
1086.50  0.0000E+000
1087.00  0.0000E+000
1087.50  0.0000E+000
1088.00  0.0000E+000
1088.50  0.0000E+000
1089.00  0.0000E+000
1089.50  0.0000E+000
1090.00  0.0000E+000
1090.50  0.0000E+000
1091.00  0.0000E+000
1091.50  0.0000E+000
1092.00  0.0000E+000
1092.50  0.0000E+000
1093.00  0.0000E+000
1093.50  0.0000E+000
1094.00  0.0000E+000
1094.50  0.0000E+000
1095.00  0.0000E+000
1095.50  0.0000E+000
1096.00  0.0000E+000
1096.50  0.0000E+000
1097.00  0.0000E+000
1097.50  0.0000E+000
1098.00  0.0000E+000
1098.50  0.0000E+000
1099.00  0.0000E+000
1099.50  0.0000E+000
1100.00  0.0000E+000
1100.50  0.0000E+000
1101.00  0.0000E+000
1101.50  0.0000E+000
1102.00  0.0000E+000
1102.50  0.0000E+000
1103.00  0.0000E+000
1103.50  0.0000E+000
1104.00  0.0000E+000
1104.50  0.0000E+000
1105.00  0.0000E+000
1105.50  0.0000E+000
1106.00  0.0000E+000
1106.50  0.0000E+000
1107.00  0.0000E+000
1107.50  0.0000E+000
1108.00  0.0000E+000
1108.50  0.0000E+000
1109.00  0.0000E+000
1109.50  0.0000E+000
1110.00  0.0000E+000
1110.50  0.0000E+000
1111.00  0.0000E+000
1111.50  0.0000E+000
1112.00  0.0000E+000
1112.50  0.0000E+000
1113.00  0.0000E+000
1113.50  0.0000E+000
1114.00  0.0000E+000
1114.50  0.0000E+000
1115.00  0.0000E+000
1115.50  0.0000E+000
1116.00  0.0000E+000
1116.50  0.0000E+000
1117.00  0.0000E+000
1117.50  0.0000E+000
1118.00  0.0000E+000
1118.50  0.0000E+000
1119.00  0.0000E+000
1119.50  0.0000E+000
1120.00  0.0000E+000
1120.50  0.0000E+000
1121.00  0.0000E+000
1121.50  0.0000E+000
1122.00  0.0000E+000
1122.50  0.0000E+000
1123.00  0.0000E+000
1123.50  0.0000E+000
1124.00  0.0000E+000
1124.50  0.0000E+000
1125.00  0.0000E+000
1125.50  0.0000E+000
1126.00  0.0000E+000
1126.50  0.0000E+000
1127.00  0.0000E+000
1127.50  0.0000E+000
: 6
