" File: 160128_ReferenceSpectra\23.IRR
" RAD->  Wave:366.44nm  Pix:434  Val:  0.000  Time:750ms  Avg:5  Sm:1  Sg:1  Tc:off  SNAP  Xt:1  Ch:1  Xtrig wnmcal >RAD-IS6.CAL
 180.00  0.0000E+000
 180.50  0.0000E+000
 181.00  0.0000E+000
 181.50  0.0000E+000
 182.00  0.0000E+000
 182.50  0.0000E+000
 183.00  0.0000E+000
 183.50  0.0000E+000
 184.00  0.0000E+000
 184.50  0.0000E+000
 185.00  0.0000E+000
 185.50  0.0000E+000
 186.00  0.0000E+000
 186.50  0.0000E+000
 187.00  0.0000E+000
 187.50  0.0000E+000
 188.00  0.0000E+000
 188.50  0.0000E+000
 189.00  0.0000E+000
 189.50  0.0000E+000
 190.00  0.0000E+000
 190.50  0.0000E+000
 191.00  0.0000E+000
 191.50  0.0000E+000
 192.00  0.0000E+000
 192.50  0.0000E+000
 193.00  0.0000E+000
 193.50  0.0000E+000
 194.00  0.0000E+000
 194.50  0.0000E+000
 195.00  0.0000E+000
 195.50  0.0000E+000
 196.00  0.0000E+000
 196.50  0.0000E+000
 197.00  0.0000E+000
 197.50  0.0000E+000
 198.00  0.0000E+000
 198.50  0.0000E+000
 199.00  0.0000E+000
 199.50  0.0000E+000
 200.00  0.0000E+000
 200.50  0.0000E+000
 201.00  0.0000E+000
 201.50  0.0000E+000
 202.00  0.0000E+000
 202.50  0.0000E+000
 203.00  0.0000E+000
 203.50  0.0000E+000
 204.00  0.0000E+000
 204.50  0.0000E+000
 205.00  0.0000E+000
 205.50  0.0000E+000
 206.00  0.0000E+000
 206.50  0.0000E+000
 207.00  0.0000E+000
 207.50  0.0000E+000
 208.00  0.0000E+000
 208.50  0.0000E+000
 209.00  0.0000E+000
 209.50  0.0000E+000
 210.00  0.0000E+000
 210.50  0.0000E+000
 211.00  0.0000E+000
 211.50  0.0000E+000
 212.00  0.0000E+000
 212.50  0.0000E+000
 213.00  0.0000E+000
 213.50  0.0000E+000
 214.00  0.0000E+000
 214.50  0.0000E+000
 215.00  0.0000E+000
 215.50  0.0000E+000
 216.00  0.0000E+000
 216.50  0.0000E+000
 217.00  0.0000E+000
 217.50  0.0000E+000
 218.00  0.0000E+000
 218.50  0.0000E+000
 219.00  0.0000E+000
 219.50  0.0000E+000
 220.00  0.0000E+000
 220.50  0.0000E+000
 221.00  0.0000E+000
 221.50  0.0000E+000
 222.00  0.0000E+000
 222.50  0.0000E+000
 223.00  0.0000E+000
 223.50  0.0000E+000
 224.00  0.0000E+000
 224.50  0.0000E+000
 225.00  0.0000E+000
 225.50  0.0000E+000
 226.00  0.0000E+000
 226.50  0.0000E+000
 227.00  0.0000E+000
 227.50  0.0000E+000
 228.00  0.0000E+000
 228.50  0.0000E+000
 229.00  0.0000E+000
 229.50  0.0000E+000
 230.00  0.0000E+000
 230.50  0.0000E+000
 231.00  0.0000E+000
 231.50  0.0000E+000
 232.00  0.0000E+000
 232.50  0.0000E+000
 233.00  0.0000E+000
 233.50  0.0000E+000
 234.00  0.0000E+000
 234.50  0.0000E+000
 235.00  0.0000E+000
 235.50  0.0000E+000
 236.00  0.0000E+000
 236.50  0.0000E+000
 237.00  0.0000E+000
 237.50  0.0000E+000
 238.00  0.0000E+000
 238.50  0.0000E+000
 239.00  0.0000E+000
 239.50  0.0000E+000
 240.00  0.0000E+000
 240.50  0.0000E+000
 241.00  0.0000E+000
 241.50  0.0000E+000
 242.00  0.0000E+000
 242.50  0.0000E+000
 243.00  0.0000E+000
 243.50  0.0000E+000
 244.00  0.0000E+000
 244.50  0.0000E+000
 245.00  0.0000E+000
 245.50  0.0000E+000
 246.00  0.0000E+000
 246.50  0.0000E+000
 247.00  0.0000E+000
 247.50  0.0000E+000
 248.00  0.0000E+000
 248.50  0.0000E+000
 249.00  0.0000E+000
 249.50  0.0000E+000
 250.00  0.0000E+000
 250.50  0.0000E+000
 251.00  0.0000E+000
 251.50  0.0000E+000
 252.00  0.0000E+000
 252.50  0.0000E+000
 253.00  0.0000E+000
 253.50  0.0000E+000
 254.00  0.0000E+000
 254.50  0.0000E+000
 255.00  0.0000E+000
 255.50  0.0000E+000
 256.00  0.0000E+000
 256.50  0.0000E+000
 257.00  0.0000E+000
 257.50  0.0000E+000
 258.00  0.0000E+000
 258.50  0.0000E+000
 259.00  0.0000E+000
 259.50  0.0000E+000
 260.00  0.0000E+000
 260.50  0.0000E+000
 261.00  0.0000E+000
 261.50  0.0000E+000
 262.00  0.0000E+000
 262.50  0.0000E+000
 263.00  0.0000E+000
 263.50  0.0000E+000
 264.00  0.0000E+000
 264.50  0.0000E+000
 265.00  0.0000E+000
 265.50  0.0000E+000
 266.00  0.0000E+000
 266.50  0.0000E+000
 267.00  0.0000E+000
 267.50  0.0000E+000
 268.00  0.0000E+000
 268.50  0.0000E+000
 269.00  0.0000E+000
 269.50  0.0000E+000
 270.00  0.0000E+000
 270.50  0.0000E+000
 271.00  0.0000E+000
 271.50  0.0000E+000
 272.00  0.0000E+000
 272.50  0.0000E+000
 273.00  0.0000E+000
 273.50  0.0000E+000
 274.00  0.0000E+000
 274.50  0.0000E+000
 275.00  0.0000E+000
 275.50  0.0000E+000
 276.00  0.0000E+000
 276.50  0.0000E+000
 277.00  0.0000E+000
 277.50  0.0000E+000
 278.00  0.0000E+000
 278.50  0.0000E+000
 279.00  0.0000E+000
 279.50  0.0000E+000
 280.00  0.0000E+000
 280.50  0.0000E+000
 281.00  0.0000E+000
 281.50  0.0000E+000
 282.00  0.0000E+000
 282.50  0.0000E+000
 283.00  0.0000E+000
 283.50  0.0000E+000
 284.00  0.0000E+000
 284.50  0.0000E+000
 285.00  0.0000E+000
 285.50  0.0000E+000
 286.00  0.0000E+000
 286.50  0.0000E+000
 287.00  0.0000E+000
 287.50  0.0000E+000
 288.00  0.0000E+000
 288.50  0.0000E+000
 289.00  0.0000E+000
 289.50  0.0000E+000
 290.00  0.0000E+000
 290.50  0.0000E+000
 291.00  0.0000E+000
 291.50  0.0000E+000
 292.00  0.0000E+000
 292.50  0.0000E+000
 293.00  0.0000E+000
 293.50  0.0000E+000
 294.00  0.0000E+000
 294.50  0.0000E+000
 295.00  0.0000E+000
 295.50  0.0000E+000
 296.00  0.0000E+000
 296.50  0.0000E+000
 297.00  0.0000E+000
 297.50  0.0000E+000
 298.00  0.0000E+000
 298.50  0.0000E+000
 299.00  0.0000E+000
 299.50  0.0000E+000
 300.00  0.0000E+000
 300.50  0.0000E+000
 301.00  0.0000E+000
 301.50  0.0000E+000
 302.00  0.0000E+000
 302.50  0.0000E+000
 303.00  0.0000E+000
 303.50  0.0000E+000
 304.00  0.0000E+000
 304.50  0.0000E+000
 305.00  0.0000E+000
 305.50  0.0000E+000
 306.00  0.0000E+000
 306.50  0.0000E+000
 307.00  0.0000E+000
 307.50  0.0000E+000
 308.00  0.0000E+000
 308.50  0.0000E+000
 309.00  0.0000E+000
 309.50  0.0000E+000
 310.00  0.0000E+000
 310.50  0.0000E+000
 311.00  0.0000E+000
 311.50  0.0000E+000
 312.00  0.0000E+000
 312.50  0.0000E+000
 313.00  0.0000E+000
 313.50  0.0000E+000
 314.00  0.0000E+000
 314.50  0.0000E+000
 315.00  0.0000E+000
 315.50  0.0000E+000
 316.00  0.0000E+000
 316.50  0.0000E+000
 317.00  0.0000E+000
 317.50  0.0000E+000
 318.00  0.0000E+000
 318.50  0.0000E+000
 319.00  0.0000E+000
 319.50  0.0000E+000
 320.00  0.0000E+000
 320.50  0.0000E+000
 321.00  0.0000E+000
 321.50  0.0000E+000
 322.00  0.0000E+000
 322.50  0.0000E+000
 323.00  0.0000E+000
 323.50  0.0000E+000
 324.00  0.0000E+000
 324.50  0.0000E+000
 325.00  0.0000E+000
 325.50  0.0000E+000
 326.00  0.0000E+000
 326.50  0.0000E+000
 327.00  0.0000E+000
 327.50  0.0000E+000
 328.00  0.0000E+000
 328.50  0.0000E+000
 329.00  0.0000E+000
 329.50  0.0000E+000
 330.00  0.0000E+000
 330.50  0.0000E+000
 331.00  0.0000E+000
 331.50  0.0000E+000
 332.00  0.0000E+000
 332.50  0.0000E+000
 333.00  0.0000E+000
 333.50  0.0000E+000
 334.00  0.0000E+000
 334.50  0.0000E+000
 335.00  0.0000E+000
 335.50  0.0000E+000
 336.00  0.0000E+000
 336.50  0.0000E+000
 337.00  0.0000E+000
 337.50  0.0000E+000
 338.00  0.0000E+000
 338.50  0.0000E+000
 339.00  0.0000E+000
 339.50  0.0000E+000
 340.00  0.0000E+000
 340.50  0.0000E+000
 341.00  0.0000E+000
 341.50  0.0000E+000
 342.00  0.0000E+000
 342.50  0.0000E+000
 343.00  0.0000E+000
 343.50  0.0000E+000
 344.00  0.0000E+000
 344.50  0.0000E+000
 345.00  0.0000E+000
 345.50  0.0000E+000
 346.00  0.0000E+000
 346.50  0.0000E+000
 347.00  0.0000E+000
 347.50  0.0000E+000
 348.00  0.0000E+000
 348.50  0.0000E+000
 349.00  0.0000E+000
 349.50  0.0000E+000
 350.00  0.0000E+000
 350.50  0.0000E+000
 351.00  0.0000E+000
 351.50  0.0000E+000
 352.00  0.0000E+000
 352.50  0.0000E+000
 353.00  0.0000E+000
 353.50  0.0000E+000
 354.00  0.0000E+000
 354.50  0.0000E+000
 355.00  0.0000E+000
 355.50  0.0000E+000
 356.00  0.0000E+000
 356.50  0.0000E+000
 357.00  0.0000E+000
 357.50  0.0000E+000
 358.00  0.0000E+000
 358.50  0.0000E+000
 359.00  0.0000E+000
 359.50  0.0000E+000
 360.00  0.0000E+000
 360.50  0.0000E+000
 361.00  2.6779E-009
 361.50  7.1103E-009
 362.00  2.0787E-008
 362.50  2.6834E-008
 363.00  4.6041E-008
 363.50  6.1480E-008
 364.00  6.9351E-008
 364.50  7.8347E-008
 365.00  8.3474E-008
 365.50  7.8233E-008
 366.00  8.7430E-008
 366.50  9.5793E-008
 367.00  9.4766E-008
 367.50  8.1514E-008
 368.00  6.3931E-008
 368.50  4.8011E-008
 369.00  4.0115E-008
 369.50  3.8237E-008
 370.00  5.0903E-008
 370.50  4.3530E-008
 371.00  3.3107E-008
 371.50  2.0336E-008
 372.00  8.3576E-009
 372.50  0.0000E+000
 373.00  0.0000E+000
 373.50  0.0000E+000
 374.00  0.0000E+000
 374.50  0.0000E+000
 375.00  0.0000E+000
 375.50  0.0000E+000
 376.00  0.0000E+000
 376.50  0.0000E+000
 377.00  0.0000E+000
 377.50  0.0000E+000
 378.00  0.0000E+000
 378.50  0.0000E+000
 379.00  0.0000E+000
 379.50  0.0000E+000
 380.00  0.0000E+000
 380.50  0.0000E+000
 381.00  0.0000E+000
 381.50  0.0000E+000
 382.00  0.0000E+000
 382.50  0.0000E+000
 383.00  0.0000E+000
 383.50  0.0000E+000
 384.00  0.0000E+000
 384.50  0.0000E+000
 385.00  0.0000E+000
 385.50  4.1094E-009
 386.00  1.5893E-008
 386.50  2.0459E-008
 387.00  3.2196E-008
 387.50  3.0629E-008
 388.00  2.2292E-008
 388.50  9.8430E-009
 389.00  8.6925E-009
 389.50  9.3354E-009
 390.00  9.6740E-009
 390.50  2.1387E-008
 391.00  3.5218E-008
 391.50  1.7411E-008
 392.00  2.8160E-008
 392.50  5.2822E-008
 393.00  5.9770E-008
 393.50  3.8910E-008
 394.00  5.7313E-008
 394.50  6.4111E-008
 395.00  3.2636E-008
 395.50  6.2202E-008
 396.00  4.2315E-008
 396.50  1.0243E-008
 397.00  0.0000E+000
 397.50  0.0000E+000
 398.00  0.0000E+000
 398.50  0.0000E+000
 399.00  0.0000E+000
 399.50  0.0000E+000
 400.00  0.0000E+000
 400.50  0.0000E+000
 401.00  0.0000E+000
 401.50  0.0000E+000
 402.00  0.0000E+000
 402.50  0.0000E+000
 403.00  0.0000E+000
 403.50  0.0000E+000
 404.00  0.0000E+000
 404.50  0.0000E+000
 405.00  0.0000E+000
 405.50  0.0000E+000
 406.00  0.0000E+000
 406.50  0.0000E+000
 407.00  0.0000E+000
 407.50  0.0000E+000
 408.00  0.0000E+000
 408.50  0.0000E+000
 409.00  0.0000E+000
 409.50  0.0000E+000
 410.00  0.0000E+000
 410.50  1.0127E-008
 411.00  4.1937E-008
 411.50  5.7429E-008
 412.00  5.0577E-008
 412.50  3.3130E-008
 413.00  4.6001E-008
 413.50  1.0385E-008
 414.00  0.0000E+000
 414.50  0.0000E+000
 415.00  0.0000E+000
 415.50  0.0000E+000
 416.00  0.0000E+000
 416.50  0.0000E+000
 417.00  0.0000E+000
 417.50  0.0000E+000
 418.00  1.9285E-008
 418.50  3.1683E-008
 419.00  3.8974E-008
 419.50  3.6478E-008
 420.00  2.1771E-008
 420.50  2.7766E-008
 421.00  2.4614E-008
 421.50  2.9514E-009
 422.00  0.0000E+000
 422.50  0.0000E+000
 423.00  9.1522E-010
 423.50  1.3878E-008
 424.00  5.0455E-008
 424.50  7.9244E-008
 425.00  8.8072E-008
 425.50  8.9143E-008
 426.00  7.7300E-008
 426.50  6.5472E-008
 427.00  5.4989E-008
 427.50  6.1199E-008
 428.00  1.5023E-008
 428.50  7.8783E-010
 429.00  0.0000E+000
 429.50  0.0000E+000
 430.00  5.9951E-009
 430.50  3.7973E-008
 431.00  3.2234E-008
 431.50  1.0440E-008
 432.00  0.0000E+000
 432.50  0.0000E+000
 433.00  0.0000E+000
 433.50  0.0000E+000
 434.00  0.0000E+000
 434.50  0.0000E+000
 435.00  0.0000E+000
 435.50  0.0000E+000
 436.00  0.0000E+000
 436.50  0.0000E+000
 437.00  0.0000E+000
 437.50  2.9650E-009
 438.00  4.5917E-009
 438.50  2.9801E-010
 439.00  0.0000E+000
 439.50  0.0000E+000
 440.00  6.0031E-009
 440.50  0.0000E+000
 441.00  0.0000E+000
 441.50  0.0000E+000
 442.00  0.0000E+000
 442.50  0.0000E+000
 443.00  3.1199E-009
 443.50  1.0546E-008
 444.00  3.0588E-009
 444.50  0.0000E+000
 445.00  0.0000E+000
 445.50  0.0000E+000
 446.00  6.8073E-010
 446.50  9.0819E-009
 447.00  2.8910E-008
 447.50  4.9215E-008
 448.00  5.7046E-008
 448.50  3.9132E-008
 449.00  2.4260E-008
 449.50  7.3415E-009
 450.00  0.0000E+000
 450.50  9.8810E-010
 451.00  6.9164E-009
 451.50  7.6841E-009
 452.00  5.5350E-009
 452.50  1.6468E-009
 453.00  0.0000E+000
 453.50  0.0000E+000
 454.00  1.0151E-008
 454.50  2.1173E-009
 455.00  0.0000E+000
 455.50  0.0000E+000
 456.00  0.0000E+000
 456.50  0.0000E+000
 457.00  2.1161E-011
 457.50  4.9534E-009
 458.00  1.0027E-008
 458.50  1.4113E-008
 459.00  1.7087E-008
 459.50  1.9458E-008
 460.00  1.1568E-008
 460.50  4.9100E-009
 461.00  5.0114E-009
 461.50  2.4437E-009
 462.00  9.6473E-009
 462.50  2.2046E-008
 463.00  2.5975E-008
 463.50  2.3275E-008
 464.00  8.7401E-009
 464.50  1.3920E-009
 465.00  0.0000E+000
 465.50  0.0000E+000
 466.00  6.5308E-009
 466.50  2.1330E-008
 467.00  3.2658E-008
 467.50  4.1931E-008
 468.00  4.9238E-008
 468.50  5.5757E-008
 469.00  5.8837E-008
 469.50  5.6793E-008
 470.00  6.1012E-008
 470.50  6.3048E-008
 471.00  5.9294E-008
 471.50  3.6825E-008
 472.00  1.9744E-008
 472.50  8.5778E-009
 473.00  1.0483E-009
 473.50  0.0000E+000
 474.00  0.0000E+000
 474.50  0.0000E+000
 475.00  0.0000E+000
 475.50  0.0000E+000
 476.00  0.0000E+000
 476.50  0.0000E+000
 477.00  0.0000E+000
 477.50  0.0000E+000
 478.00  0.0000E+000
 478.50  0.0000E+000
 479.00  0.0000E+000
 479.50  1.9783E-009
 480.00  1.3942E-008
 480.50  1.2534E-008
 481.00  1.2808E-008
 481.50  3.1457E-008
 482.00  2.0652E-008
 482.50  3.0202E-009
 483.00  0.0000E+000
 483.50  0.0000E+000
 484.00  0.0000E+000
 484.50  0.0000E+000
 485.00  0.0000E+000
 485.50  0.0000E+000
 486.00  0.0000E+000
 486.50  0.0000E+000
 487.00  0.0000E+000
 487.50  0.0000E+000
 488.00  0.0000E+000
 488.50  0.0000E+000
 489.00  0.0000E+000
 489.50  0.0000E+000
 490.00  0.0000E+000
 490.50  1.2026E-009
 491.00  1.0176E-008
 491.50  8.9871E-009
 492.00  6.8932E-010
 492.50  0.0000E+000
 493.00  0.0000E+000
 493.50  0.0000E+000
 494.00  0.0000E+000
 494.50  0.0000E+000
 495.00  0.0000E+000
 495.50  0.0000E+000
 496.00  0.0000E+000
 496.50  0.0000E+000
 497.00  0.0000E+000
 497.50  0.0000E+000
 498.00  0.0000E+000
 498.50  0.0000E+000
 499.00  0.0000E+000
 499.50  0.0000E+000
 500.00  0.0000E+000
 500.50  0.0000E+000
 501.00  2.7285E-009
 501.50  1.9276E-008
 502.00  3.3847E-008
 502.50  2.4351E-008
 503.00  1.0798E-008
 503.50  6.6596E-010
 504.00  0.0000E+000
 504.50  0.0000E+000
 505.00  0.0000E+000
 505.50  0.0000E+000
 506.00  0.0000E+000
 506.50  0.0000E+000
 507.00  0.0000E+000
 507.50  0.0000E+000
 508.00  0.0000E+000
 508.50  0.0000E+000
 509.00  4.9035E-009
 509.50  2.3940E-008
 510.00  4.7606E-008
 510.50  3.0404E-008
 511.00  1.8872E-008
 511.50  9.2942E-009
 512.00  1.6164E-009
 512.50  0.0000E+000
 513.00  0.0000E+000
 513.50  0.0000E+000
 514.00  0.0000E+000
 514.50  0.0000E+000
 515.00  0.0000E+000
 515.50  0.0000E+000
 516.00  0.0000E+000
 516.50  0.0000E+000
 517.00  0.0000E+000
 517.50  3.6362E-009
 518.00  9.0453E-009
 518.50  1.0984E-008
 519.00  1.1059E-009
 519.50  0.0000E+000
 520.00  0.0000E+000
 520.50  0.0000E+000
 521.00  0.0000E+000
 521.50  0.0000E+000
 522.00  0.0000E+000
 522.50  0.0000E+000
 523.00  0.0000E+000
 523.50  0.0000E+000
 524.00  0.0000E+000
 524.50  0.0000E+000
 525.00  0.0000E+000
 525.50  0.0000E+000
 526.00  0.0000E+000
 526.50  0.0000E+000
 527.00  0.0000E+000
 527.50  0.0000E+000
 528.00  0.0000E+000
 528.50  0.0000E+000
 529.00  2.2783E-010
 529.50  1.1107E-009
 530.00  1.4650E-010
 530.50  8.2990E-009
 531.00  1.8721E-008
 531.50  2.4641E-008
 532.00  2.9984E-008
 532.50  1.2052E-008
 533.00  5.1970E-011
 533.50  0.0000E+000
 534.00  0.0000E+000
 534.50  0.0000E+000
 535.00  0.0000E+000
 535.50  0.0000E+000
 536.00  0.0000E+000
 536.50  0.0000E+000
 537.00  0.0000E+000
 537.50  3.8322E-009
 538.00  6.0959E-009
 538.50  0.0000E+000
 539.00  1.6867E-009
 539.50  5.0469E-009
 540.00  1.1451E-009
 540.50  1.0886E-008
 541.00  1.9106E-008
 541.50  4.7093E-008
 542.00  3.2700E-008
 542.50  2.5245E-008
 543.00  1.3141E-008
 543.50  1.8289E-009
 544.00  0.0000E+000
 544.50  0.0000E+000
 545.00  0.0000E+000
 545.50  0.0000E+000
 546.00  0.0000E+000
 546.50  2.9948E-009
 547.00  3.4923E-008
 547.50  7.2469E-008
 548.00  8.8224E-008
 548.50  9.8307E-008
 549.00  1.0862E-007
 549.50  1.1123E-007
 550.00  1.3349E-007
 550.50  1.8014E-007
 551.00  1.2219E-007
 551.50  3.9859E-008
 552.00  7.1717E-010
 552.50  0.0000E+000
 553.00  0.0000E+000
 553.50  0.0000E+000
 554.00  0.0000E+000
 554.50  0.0000E+000
 555.00  0.0000E+000
 555.50  0.0000E+000
 556.00  0.0000E+000
 556.50  0.0000E+000
 557.00  0.0000E+000
 557.50  0.0000E+000
 558.00  0.0000E+000
 558.50  0.0000E+000
 559.00  0.0000E+000
 559.50  0.0000E+000
 560.00  0.0000E+000
 560.50  0.0000E+000
 561.00  0.0000E+000
 561.50  0.0000E+000
 562.00  0.0000E+000
 562.50  0.0000E+000
 563.00  0.0000E+000
 563.50  0.0000E+000
 564.00  0.0000E+000
 564.50  2.4371E-009
 565.00  1.8501E-008
 565.50  3.4130E-008
 566.00  4.7360E-008
 566.50  5.6910E-008
 567.00  3.3078E-008
 567.50  6.0599E-009
 568.00  0.0000E+000
 568.50  0.0000E+000
 569.00  0.0000E+000
 569.50  7.3416E-010
 570.00  1.3323E-008
 570.50  2.8086E-008
 571.00  9.1006E-008
 571.50  1.3662E-007
 572.00  9.8749E-008
 572.50  7.7267E-008
 573.00  5.9188E-008
 573.50  1.2779E-008
 574.00  2.4029E-008
 574.50  6.5306E-008
 575.00  8.4527E-008
 575.50  5.7412E-008
 576.00  3.4848E-008
 576.50  2.9275E-008
 577.00  1.0824E-008
 577.50  7.8433E-009
 578.00  2.9449E-008
 578.50  5.3819E-008
 579.00  8.1406E-008
 579.50  9.1205E-008
 580.00  1.0007E-007
 580.50  1.0633E-007
 581.00  1.2305E-007
 581.50  7.5069E-008
 582.00  7.7750E-008
 582.50  5.8527E-008
 583.00  5.7084E-008
 583.50  1.1869E-007
 584.00  1.5761E-007
 584.50  1.1461E-007
 585.00  7.1533E-008
 585.50  3.8295E-008
 586.00  4.1855E-009
 586.50  0.0000E+000
 587.00  6.3225E-010
 587.50  1.3324E-008
 588.00  2.3568E-009
 588.50  7.9714E-009
 589.00  4.1940E-010
 589.50  1.1772E-008
 590.00  1.1095E-008
 590.50  0.0000E+000
 591.00  0.0000E+000
 591.50  0.0000E+000
 592.00  0.0000E+000
 592.50  0.0000E+000
 593.00  0.0000E+000
 593.50  0.0000E+000
 594.00  0.0000E+000
 594.50  0.0000E+000
 595.00  0.0000E+000
 595.50  0.0000E+000
 596.00  0.0000E+000
 596.50  0.0000E+000
 597.00  0.0000E+000
 597.50  0.0000E+000
 598.00  0.0000E+000
 598.50  0.0000E+000
 599.00  0.0000E+000
 599.50  0.0000E+000
 600.00  0.0000E+000
 600.50  2.4946E-008
 601.00  7.7870E-008
 601.50  4.8607E-008
 602.00  4.2224E-008
 602.50  4.5668E-008
 603.00  1.4515E-008
 603.50  2.7626E-008
 604.00  6.6509E-008
 604.50  7.3957E-008
 605.00  8.1638E-008
 605.50  6.5207E-008
 606.00  6.9622E-008
 606.50  6.6042E-008
 607.00  6.2845E-008
 607.50  2.5111E-008
 608.00  6.8298E-010
 608.50  0.0000E+000
 609.00  0.0000E+000
 609.50  0.0000E+000
 610.00  0.0000E+000
 610.50  0.0000E+000
 611.00  0.0000E+000
 611.50  0.0000E+000
 612.00  0.0000E+000
 612.50  0.0000E+000
 613.00  1.2614E-009
 613.50  3.4057E-008
 614.00  6.4819E-008
 614.50  2.4861E-008
 615.00  3.7051E-009
 615.50  0.0000E+000
 616.00  0.0000E+000
 616.50  0.0000E+000
 617.00  0.0000E+000
 617.50  2.9166E-010
 618.00  3.1908E-008
 618.50  9.6101E-008
 619.00  1.5810E-007
 619.50  1.3604E-007
 620.00  9.9128E-008
 620.50  6.6884E-008
 621.00  1.5831E-008
 621.50  0.0000E+000
 622.00  0.0000E+000
 622.50  0.0000E+000
 623.00  0.0000E+000
 623.50  4.4925E-008
 624.00  6.9466E-008
 624.50  9.3872E-008
 625.00  1.3180E-007
 625.50  1.6658E-007
 626.00  1.3138E-007
 626.50  1.2139E-007
 627.00  1.2043E-007
 627.50  9.2359E-008
 628.00  4.0336E-008
 628.50  1.7006E-008
 629.00  3.2167E-008
 629.50  2.5477E-008
 630.00  4.8733E-008
 630.50  8.1435E-008
 631.00  1.4202E-007
 631.50  1.6047E-007
 632.00  1.4201E-007
 632.50  1.6039E-007
 633.00  1.7415E-007
 633.50  1.2313E-007
 634.00  8.6511E-008
 634.50  9.8951E-008
 635.00  9.6379E-008
 635.50  3.7133E-008
 636.00  5.4980E-008
 636.50  8.1278E-008
 637.00  8.6073E-008
 637.50  9.4420E-008
 638.00  1.5312E-007
 638.50  1.2730E-007
 639.00  1.0197E-007
 639.50  3.5766E-008
 640.00  1.8433E-008
 640.50  3.0026E-008
 641.00  4.1002E-008
 641.50  1.1800E-007
 642.00  1.9495E-007
 642.50  2.3672E-007
 643.00  2.6452E-007
 643.50  2.7743E-007
 644.00  2.2242E-007
 644.50  1.7322E-007
 645.00  1.3331E-007
 645.50  1.2466E-007
 646.00  1.0653E-007
 646.50  6.7064E-008
 647.00  2.2915E-008
 647.50  3.5918E-009
 648.00  0.0000E+000
 648.50  0.0000E+000
 649.00  0.0000E+000
 649.50  0.0000E+000
 650.00  0.0000E+000
 650.50  0.0000E+000
 651.00  0.0000E+000
 651.50  9.8957E-009
 652.00  5.2110E-008
 652.50  6.9344E-008
 653.00  6.5206E-008
 653.50  4.5041E-008
 654.00  2.3355E-008
 654.50  3.3673E-009
 655.00  0.0000E+000
 655.50  2.2019E-009
 656.00  7.4161E-008
 656.50  1.1184E-007
 657.00  9.5885E-008
 657.50  3.1016E-008
 658.00  0.0000E+000
 658.50  0.0000E+000
 659.00  2.3934E-009
 659.50  4.8047E-009
 660.00  0.0000E+000
 660.50  0.0000E+000
 661.00  8.2597E-010
 661.50  4.5443E-010
 662.00  0.0000E+000
 662.50  0.0000E+000
 663.00  5.1363E-008
 663.50  2.9897E-008
 664.00  2.4049E-007
 664.50  3.5137E-007
 665.00  3.6169E-007
 665.50  2.6962E-007
 666.00  1.9937E-007
 666.50  6.7540E-008
 667.00  1.0979E-008
 667.50  0.0000E+000
 668.00  0.0000E+000
 668.50  0.0000E+000
 669.00  0.0000E+000
 669.50  0.0000E+000
 670.00  0.0000E+000
 670.50  0.0000E+000
 671.00  0.0000E+000
 671.50  0.0000E+000
 672.00  0.0000E+000
 672.50  0.0000E+000
 673.00  0.0000E+000
 673.50  0.0000E+000
 674.00  0.0000E+000
 674.50  0.0000E+000
 675.00  0.0000E+000
 675.50  2.1790E-008
 676.00  1.4022E-007
 676.50  2.3852E-007
 677.00  2.5379E-007
 677.50  3.1105E-007
 678.00  3.9615E-007
 678.50  4.9061E-007
 679.00  5.6084E-007
 679.50  5.5356E-007
 680.00  4.8133E-007
 680.50  3.7716E-007
 681.00  2.2456E-007
 681.50  6.1068E-008
 682.00  0.0000E+000
 682.50  0.0000E+000
 683.00  0.0000E+000
 683.50  0.0000E+000
 684.00  3.1407E-008
 684.50  6.4228E-008
 685.00  4.4933E-008
 685.50  1.1164E-008
 686.00  2.2335E-008
 686.50  0.0000E+000
 687.00  0.0000E+000
 687.50  0.0000E+000
 688.00  0.0000E+000
 688.50  0.0000E+000
 689.00  0.0000E+000
 689.50  2.0706E-008
 690.00  7.3822E-008
 690.50  3.9311E-008
 691.00  9.8729E-009
 691.50  9.4854E-010
 692.00  1.6637E-007
 692.50  2.3100E-007
 693.00  2.4463E-007
 693.50  2.7534E-007
 694.00  2.7493E-007
 694.50  1.6004E-007
 695.00  1.9250E-007
 695.50  2.6506E-007
 696.00  2.8551E-007
 696.50  2.2497E-007
 697.00  6.8673E-008
 697.50  0.0000E+000
 698.00  0.0000E+000
 698.50  0.0000E+000
 699.00  0.0000E+000
 699.50  0.0000E+000
 700.00  0.0000E+000
 700.50  0.0000E+000
 701.00  0.0000E+000
 701.50  0.0000E+000
 702.00  0.0000E+000
 702.50  1.5773E-009
 703.00  2.7006E-009
 703.50  0.0000E+000
 704.00  0.0000E+000
 704.50  0.0000E+000
 705.00  0.0000E+000
 705.50  6.4457E-009
 706.00  1.3443E-007
 706.50  2.0135E-007
 707.00  2.5261E-007
 707.50  2.8847E-007
 708.00  2.6975E-007
 708.50  3.1004E-007
 709.00  4.1400E-007
 709.50  3.6499E-007
 710.00  3.4377E-007
 710.50  3.6246E-007
 711.00  2.7353E-007
 711.50  1.7601E-007
 712.00  2.2122E-007
 712.50  2.0341E-007
 713.00  1.5162E-007
 713.50  2.2197E-007
 714.00  4.4010E-007
 714.50  6.0344E-007
 715.00  9.7145E-007
 715.50  8.4588E-007
 716.00  7.1063E-007
 716.50  5.1687E-007
 717.00  3.2201E-007
 717.50  1.2896E-007
 718.00  2.1381E-007
 718.50  2.2328E-007
 719.00  1.4825E-007
 719.50  3.8329E-008
 720.00  0.0000E+000
 720.50  0.0000E+000
 721.00  0.0000E+000
 721.50  0.0000E+000
 722.00  0.0000E+000
 722.50  0.0000E+000
 723.00  0.0000E+000
 723.50  0.0000E+000
 724.00  0.0000E+000
 724.50  1.7404E-008
 725.00  9.0385E-008
 725.50  4.9463E-008
 726.00  0.0000E+000
 726.50  0.0000E+000
 727.00  0.0000E+000
 727.50  0.0000E+000
 728.00  0.0000E+000
 728.50  0.0000E+000
 729.00  0.0000E+000
 729.50  1.4084E-008
 730.00  5.8709E-008
 730.50  3.3203E-008
 731.00  4.4288E-008
 731.50  2.8034E-008
 732.00  0.0000E+000
 732.50  0.0000E+000
 733.00  0.0000E+000
 733.50  0.0000E+000
 734.00  5.7867E-009
 734.50  1.2135E-007
 735.00  4.1019E-007
 735.50  6.0829E-007
 736.00  7.5796E-007
 736.50  8.9247E-007
 737.00  8.2207E-007
 737.50  5.7029E-007
 738.00  3.4351E-007
 738.50  1.5327E-007
 739.00  9.0576E-008
 739.50  1.6402E-007
 740.00  3.3031E-007
 740.50  4.6008E-007
 741.00  4.3982E-007
 741.50  4.4586E-007
 742.00  3.4253E-007
 742.50  1.7828E-007
 743.00  1.0511E-007
 743.50  1.3219E-007
 744.00  1.8264E-007
 744.50  2.7571E-007
 745.00  3.7538E-007
 745.50  4.6538E-007
 746.00  5.2645E-007
 746.50  4.7851E-007
 747.00  4.7494E-007
 747.50  4.3793E-007
 748.00  3.2884E-007
 748.50  2.0465E-007
 749.00  2.1520E-007
 749.50  1.8112E-007
 750.00  1.8144E-007
 750.50  1.9487E-007
 751.00  3.2927E-007
 751.50  5.1306E-007
 752.00  6.5326E-007
 752.50  7.6591E-007
 753.00  8.5695E-007
 753.50  7.5391E-007
 754.00  4.8704E-007
 754.50  2.6311E-007
 755.00  7.4290E-008
 755.50  3.5215E-009
 756.00  0.0000E+000
 756.50  0.0000E+000
 757.00  0.0000E+000
 757.50  0.0000E+000
 758.00  0.0000E+000
 758.50  0.0000E+000
 759.00  0.0000E+000
 759.50  0.0000E+000
 760.00  0.0000E+000
 760.50  0.0000E+000
 761.00  0.0000E+000
 761.50  0.0000E+000
 762.00  0.0000E+000
 762.50  0.0000E+000
 763.00  0.0000E+000
 763.50  0.0000E+000
 764.00  0.0000E+000
 764.50  0.0000E+000
 765.00  0.0000E+000
 765.50  0.0000E+000
 766.00  0.0000E+000
 766.50  0.0000E+000
 767.00  0.0000E+000
 767.50  0.0000E+000
 768.00  0.0000E+000
 768.50  0.0000E+000
 769.00  0.0000E+000
 769.50  2.4409E-007
 770.00  2.0636E-007
 770.50  1.6159E-008
 771.00  1.7558E-007
 771.50  2.9456E-007
 772.00  5.7508E-008
 772.50  2.3106E-007
 773.00  3.8299E-007
 773.50  2.0695E-007
 774.00  0.0000E+000
 774.50  0.0000E+000
 775.00  0.0000E+000
 775.50  0.0000E+000
 776.00  5.9040E-008
 776.50  3.0196E-007
 777.00  4.9683E-007
 777.50  6.1173E-007
 778.00  7.5715E-007
 778.50  7.9378E-007
 779.00  6.5310E-007
 779.50  6.3934E-007
 780.00  6.1365E-007
 780.50  5.3167E-007
 781.00  4.5930E-007
 781.50  4.2447E-007
 782.00  3.5021E-007
 782.50  3.5271E-007
 783.00  4.6618E-007
 783.50  3.4939E-007
 784.00  3.4656E-007
 784.50  4.2196E-007
 785.00  5.4720E-007
 785.50  3.4860E-007
 786.00  3.9106E-007
 786.50  4.7515E-007
 787.00  4.6891E-007
 787.50  5.2320E-007
 788.00  7.4301E-007
 788.50  8.5328E-007
 789.00  7.9690E-007
 789.50  6.4867E-007
 790.00  5.4301E-007
 790.50  6.9630E-007
 791.00  8.2562E-007
 791.50  8.9823E-007
 792.00  1.0830E-006
 792.50  1.0983E-006
 793.00  8.5930E-007
 793.50  7.0917E-007
 794.00  5.6615E-007
 794.50  4.0773E-007
 795.00  2.6012E-007
 795.50  1.6751E-007
 796.00  1.0614E-007
 796.50  1.1417E-007
 797.00  1.3088E-007
 797.50  1.1973E-007
 798.00  9.2525E-008
 798.50  1.8135E-007
 799.00  4.5770E-007
 799.50  5.0002E-007
 800.00  5.5681E-007
 800.50  7.4083E-007
 801.00  6.8864E-007
 801.50  4.0715E-007
 802.00  3.6212E-007
 802.50  3.8231E-007
 803.00  2.8788E-007
 803.50  1.1278E-007
 804.00  6.1296E-008
 804.50  2.9368E-008
 805.00  0.0000E+000
 805.50  0.0000E+000
 806.00  0.0000E+000
 806.50  4.1293E-009
 807.00  5.3369E-008
 807.50  1.6000E-007
 808.00  2.8312E-007
 808.50  4.0718E-007
 809.00  4.7391E-007
 809.50  5.6129E-007
 810.00  7.4602E-007
 810.50  8.3590E-007
 811.00  8.6037E-007
 811.50  9.8109E-007
 812.00  9.0024E-007
 812.50  7.9842E-007
 813.00  6.9095E-007
 813.50  6.0965E-007
 814.00  2.7226E-007
 814.50  1.8858E-007
 815.00  2.2908E-007
 815.50  1.1852E-007
 816.00  1.5694E-007
 816.50  3.2770E-007
 817.00  3.7413E-007
 817.50  5.4284E-007
 818.00  7.2815E-007
 818.50  8.7531E-007
 819.00  9.6557E-007
 819.50  1.0124E-006
 820.00  1.0023E-006
 820.50  9.5303E-007
 821.00  9.6955E-007
 821.50  9.7416E-007
 822.00  9.1266E-007
 822.50  7.8815E-007
 823.00  8.5001E-007
 823.50  7.5465E-007
 824.00  7.0352E-007
 824.50  6.7932E-007
 825.00  6.5715E-007
 825.50  6.1867E-007
 826.00  5.9574E-007
 826.50  8.2066E-007
 827.00  1.1550E-006
 827.50  1.2578E-006
 828.00  1.3262E-006
 828.50  1.4381E-006
 829.00  1.3580E-006
 829.50  1.4254E-006
 830.00  1.7018E-006
 830.50  1.9856E-006
 831.00  2.1420E-006
 831.50  2.2909E-006
 832.00  2.3405E-006
 832.50  2.4467E-006
 833.00  2.5676E-006
 833.50  2.6836E-006
 834.00  2.5915E-006
 834.50  2.3935E-006
 835.00  2.4104E-006
 835.50  2.3582E-006
 836.00  1.9217E-006
 836.50  1.5492E-006
 837.00  1.3283E-006
 837.50  9.3887E-007
 838.00  6.9975E-007
 838.50  7.7408E-007
 839.00  8.4630E-007
 839.50  8.2201E-007
 840.00  8.0857E-007
 840.50  1.0070E-006
 841.00  1.1736E-006
 841.50  1.5232E-006
 842.00  1.9825E-006
 842.50  2.4177E-006
 843.00  2.6419E-006
 843.50  3.0956E-006
 844.00  3.4608E-006
 844.50  3.4854E-006
 845.00  3.3979E-006
 845.50  3.3097E-006
 846.00  3.1719E-006
 846.50  3.2286E-006
 847.00  3.7163E-006
 847.50  4.1525E-006
 848.00  4.2109E-006
 848.50  4.1915E-006
 849.00  4.0096E-006
 849.50  3.6694E-006
 850.00  3.7234E-006
 850.50  4.0428E-006
 851.00  4.3851E-006
 851.50  4.7846E-006
 852.00  5.3619E-006
 852.50  5.9675E-006
 853.00  6.5614E-006
 853.50  6.9457E-006
 854.00  7.2405E-006
 854.50  7.4382E-006
 855.00  7.4293E-006
 855.50  7.4247E-006
 856.00  7.6805E-006
 856.50  7.8055E-006
 857.00  7.4890E-006
 857.50  7.2880E-006
 858.00  7.2171E-006
 858.50  7.1039E-006
 859.00  7.0898E-006
 859.50  7.4543E-006
 860.00  7.7106E-006
 860.50  7.7070E-006
 861.00  7.6499E-006
 861.50  7.6765E-006
 862.00  7.7342E-006
 862.50  8.0998E-006
 863.00  8.8544E-006
 863.50  9.1036E-006
 864.00  9.3588E-006
 864.50  1.0339E-005
 865.00  1.0870E-005
 865.50  1.1013E-005
 866.00  1.2188E-005
 866.50  1.3271E-005
 867.00  1.3478E-005
 867.50  1.4104E-005
 868.00  1.4772E-005
 868.50  1.5549E-005
 869.00  1.6415E-005
 869.50  1.7417E-005
 870.00  1.8402E-005
 870.50  1.9307E-005
 871.00  2.0062E-005
 871.50  2.0714E-005
 872.00  2.1297E-005
 872.50  2.1945E-005
 873.00  2.2620E-005
 873.50  2.3188E-005
 874.00  2.3817E-005
 874.50  2.4494E-005
 875.00  2.5226E-005
 875.50  2.5953E-005
 876.00  2.6689E-005
 876.50  2.7236E-005
 877.00  2.7907E-005
 877.50  2.8436E-005
 878.00  2.8890E-005
 878.50  2.9123E-005
 879.00  2.9663E-005
 879.50  3.0174E-005
 880.00  3.0434E-005
 880.50  3.0617E-005
 881.00  3.0685E-005
 881.50  3.0455E-005
 882.00  3.0436E-005
 882.50  3.0934E-005
 883.00  3.1385E-005
 883.50  3.1343E-005
 884.00  3.1611E-005
 884.50  3.2099E-005
 885.00  3.2264E-005
 885.50  3.2798E-005
 886.00  3.3603E-005
 886.50  3.4126E-005
 887.00  3.4636E-005
 887.50  3.5234E-005
 888.00  3.6173E-005
 888.50  3.6997E-005
 889.00  3.8079E-005
 889.50  3.9024E-005
 890.00  3.9897E-005
 890.50  4.0748E-005
 891.00  4.1900E-005
 891.50  4.2704E-005
 892.00  4.3477E-005
 892.50  4.4777E-005
 893.00  4.6336E-005
 893.50  4.7982E-005
 894.00  4.9568E-005
 894.50  5.1449E-005
 895.00  5.3278E-005
 895.50  5.5222E-005
 896.00  5.7316E-005
 896.50  5.9251E-005
 897.00  6.1122E-005
 897.50  6.3347E-005
 898.00  6.6221E-005
 898.50  7.0091E-005
 899.00  7.3771E-005
 899.50  7.7516E-005
 900.00  8.1696E-005
 900.50  8.5732E-005
 901.00  8.9692E-005
 901.50  9.5124E-005
 902.00  1.0100E-004
 902.50  1.0721E-004
 903.00  1.1409E-004
 903.50  1.2180E-004
 904.00  1.2984E-004
 904.50  1.3813E-004
 905.00  1.4579E-004
 905.50  1.5376E-004
 906.00  1.6160E-004
 906.50  1.6976E-004
 907.00  1.7857E-004
 907.50  1.8790E-004
 908.00  1.9734E-004
 908.50  2.0753E-004
 909.00  2.1785E-004
 909.50  2.2820E-004
 910.00  2.3897E-004
 910.50  2.4995E-004
 911.00  2.6092E-004
 911.50  2.7186E-004
 912.00  2.8314E-004
 912.50  2.9474E-004
 913.00  3.0620E-004
 913.50  3.1797E-004
 914.00  3.2982E-004
 914.50  3.4156E-004
 915.00  3.5306E-004
 915.50  3.6519E-004
 916.00  3.7722E-004
 916.50  3.8986E-004
 917.00  4.0270E-004
 917.50  4.1633E-004
 918.00  4.2916E-004
 918.50  4.4256E-004
 919.00  4.5654E-004
 919.50  4.7126E-004
 920.00  4.8615E-004
 920.50  5.0133E-004
 921.00  5.1689E-004
 921.50  5.3291E-004
 922.00  5.4899E-004
 922.50  5.6577E-004
 923.00  5.8364E-004
 923.50  6.0182E-004
 924.00  6.2022E-004
 924.50  6.3908E-004
 925.00  6.5831E-004
 925.50  6.7751E-004
 926.00  6.9693E-004
 926.50  7.1659E-004
 927.00  7.3666E-004
 927.50  7.5743E-004
 928.00  7.7927E-004
 928.50  8.0169E-004
 929.00  8.2458E-004
 929.50  8.4802E-004
 930.00  8.7227E-004
 930.50  8.9712E-004
 931.00  9.2226E-004
 931.50  9.4832E-004
 932.00  9.7501E-004
 932.50  1.0014E-003
 933.00  1.0281E-003
 933.50  1.0551E-003
 934.00  1.0815E-003
 934.50  1.1069E-003
 935.00  1.1304E-003
 935.50  1.1526E-003
 936.00  1.1729E-003
 936.50  1.1914E-003
 937.00  1.2072E-003
 937.50  1.2221E-003
 938.00  1.2354E-003
 938.50  1.2471E-003
 939.00  1.2585E-003
 939.50  1.2706E-003
 940.00  1.2824E-003
 940.50  1.2942E-003
 941.00  1.3073E-003
 941.50  1.3218E-003
 942.00  1.3373E-003
 942.50  1.3553E-003
 943.00  1.3770E-003
 943.50  1.4030E-003
 944.00  1.4346E-003
 944.50  1.4721E-003
 945.00  1.5140E-003
 945.50  1.5613E-003
 946.00  1.6125E-003
 946.50  1.6694E-003
 947.00  1.7333E-003
 947.50  1.8051E-003
 948.00  1.8847E-003
 948.50  1.9731E-003
 949.00  2.0685E-003
 949.50  2.1704E-003
 950.00  2.2795E-003
 950.50  2.3937E-003
 951.00  2.5113E-003
 951.50  2.6342E-003
 952.00  2.7623E-003
 952.50  2.8943E-003
 953.00  3.0297E-003
 953.50  3.1686E-003
 954.00  3.3087E-003
 954.50  3.4491E-003
 955.00  3.5895E-003
 955.50  3.7277E-003
 956.00  3.8605E-003
 956.50  3.9859E-003
 957.00  4.1037E-003
 957.50  4.2123E-003
 958.00  4.3142E-003
 958.50  4.4086E-003
 959.00  4.4926E-003
 959.50  4.5643E-003
 960.00  4.6238E-003
 960.50  4.6669E-003
 961.00  4.6942E-003
 961.50  4.7059E-003
 962.00  4.7016E-003
 962.50  4.6847E-003
 963.00  4.6532E-003
 963.50  4.6069E-003
 964.00  4.5439E-003
 964.50  4.4649E-003
 965.00  4.3715E-003
 965.50  4.2652E-003
 966.00  4.1513E-003
 966.50  4.0329E-003
 967.00  3.9120E-003
 967.50  3.7898E-003
 968.00  3.6644E-003
 968.50  3.5362E-003
 969.00  3.4104E-003
 969.50  3.2849E-003
 970.00  3.1589E-003
 970.50  3.0352E-003
 971.00  2.9136E-003
 971.50  2.7923E-003
 972.00  2.6720E-003
 972.50  2.5543E-003
 973.00  2.4392E-003
 973.50  2.3276E-003
 974.00  2.2206E-003
 974.50  2.1182E-003
 975.00  2.0197E-003
 975.50  1.9249E-003
 976.00  1.8358E-003
 976.50  1.7534E-003
 977.00  1.6753E-003
 977.50  1.5990E-003
 978.00  1.5264E-003
 978.50  1.4552E-003
 979.00  1.3843E-003
 979.50  1.3163E-003
 980.00  1.2518E-003
 980.50  1.1898E-003
 981.00  1.1293E-003
 981.50  1.0730E-003
 982.00  1.0192E-003
 982.50  9.6925E-004
 983.00  9.2273E-004
 983.50  8.7830E-004
 984.00  8.3491E-004
 984.50  7.9371E-004
 985.00  7.5274E-004
 985.50  7.1367E-004
 986.00  6.7976E-004
 986.50  6.4987E-004
 987.00  6.2028E-004
 987.50  5.9420E-004
 988.00  5.6956E-004
 988.50  5.4491E-004
 989.00  5.2118E-004
 989.50  4.9895E-004
 990.00  4.7652E-004
 990.50  4.5494E-004
 991.00  4.3419E-004
 991.50  4.1353E-004
 992.00  3.9443E-004
 992.50  3.7659E-004
 993.00  3.5813E-004
 993.50  3.4088E-004
 994.00  3.2699E-004
 994.50  3.1742E-004
 995.00  3.0341E-004
 995.50  2.8985E-004
 996.00  2.7906E-004
 996.50  2.6763E-004
 997.00  2.5212E-004
 997.50  2.4461E-004
 998.00  2.3804E-004
 998.50  2.2951E-004
 999.00  2.2003E-004
 999.50  2.1152E-004
1000.00  1.2956E-004
1000.50  6.3754E-006
1001.00  0.0000E+000
1001.50  0.0000E+000
1002.00  0.0000E+000
1002.50  0.0000E+000
1003.00  0.0000E+000
1003.50  0.0000E+000
1004.00  0.0000E+000
1004.50  0.0000E+000
1005.00  0.0000E+000
1005.50  0.0000E+000
1006.00  0.0000E+000
1006.50  0.0000E+000
1007.00  0.0000E+000
1007.50  0.0000E+000
1008.00  0.0000E+000
1008.50  0.0000E+000
1009.00  0.0000E+000
1009.50  0.0000E+000
1010.00  0.0000E+000
1010.50  0.0000E+000
1011.00  0.0000E+000
1011.50  0.0000E+000
1012.00  0.0000E+000
1012.50  0.0000E+000
1013.00  0.0000E+000
1013.50  0.0000E+000
1014.00  0.0000E+000
1014.50  0.0000E+000
1015.00  0.0000E+000
1015.50  0.0000E+000
1016.00  0.0000E+000
1016.50  0.0000E+000
1017.00  0.0000E+000
1017.50  0.0000E+000
1018.00  0.0000E+000
1018.50  0.0000E+000
1019.00  0.0000E+000
1019.50  0.0000E+000
1020.00  0.0000E+000
1020.50  0.0000E+000
1021.00  0.0000E+000
1021.50  0.0000E+000
1022.00  0.0000E+000
1022.50  0.0000E+000
1023.00  0.0000E+000
1023.50  0.0000E+000
1024.00  0.0000E+000
1024.50  0.0000E+000
1025.00  0.0000E+000
1025.50  0.0000E+000
1026.00  0.0000E+000
1026.50  0.0000E+000
1027.00  0.0000E+000
1027.50  0.0000E+000
1028.00  0.0000E+000
1028.50  0.0000E+000
1029.00  0.0000E+000
1029.50  0.0000E+000
1030.00  0.0000E+000
1030.50  0.0000E+000
1031.00  0.0000E+000
1031.50  0.0000E+000
1032.00  0.0000E+000
1032.50  0.0000E+000
1033.00  0.0000E+000
1033.50  0.0000E+000
1034.00  0.0000E+000
1034.50  0.0000E+000
1035.00  0.0000E+000
1035.50  0.0000E+000
1036.00  0.0000E+000
1036.50  0.0000E+000
1037.00  0.0000E+000
1037.50  0.0000E+000
1038.00  0.0000E+000
1038.50  0.0000E+000
1039.00  0.0000E+000
1039.50  0.0000E+000
1040.00  0.0000E+000
1040.50  0.0000E+000
1041.00  0.0000E+000
1041.50  0.0000E+000
1042.00  0.0000E+000
1042.50  0.0000E+000
1043.00  0.0000E+000
1043.50  0.0000E+000
1044.00  0.0000E+000
1044.50  0.0000E+000
1045.00  0.0000E+000
1045.50  0.0000E+000
1046.00  0.0000E+000
1046.50  0.0000E+000
1047.00  0.0000E+000
1047.50  0.0000E+000
1048.00  0.0000E+000
1048.50  0.0000E+000
1049.00  0.0000E+000
1049.50  0.0000E+000
1050.00  0.0000E+000
1050.50  0.0000E+000
1051.00  0.0000E+000
1051.50  0.0000E+000
1052.00  0.0000E+000
1052.50  0.0000E+000
1053.00  0.0000E+000
1053.50  0.0000E+000
1054.00  0.0000E+000
1054.50  0.0000E+000
1055.00  0.0000E+000
1055.50  0.0000E+000
1056.00  0.0000E+000
1056.50  0.0000E+000
1057.00  0.0000E+000
1057.50  0.0000E+000
1058.00  0.0000E+000
1058.50  0.0000E+000
1059.00  0.0000E+000
1059.50  0.0000E+000
1060.00  0.0000E+000
1060.50  0.0000E+000
1061.00  0.0000E+000
1061.50  0.0000E+000
1062.00  0.0000E+000
1062.50  0.0000E+000
1063.00  0.0000E+000
1063.50  0.0000E+000
1064.00  0.0000E+000
1064.50  0.0000E+000
1065.00  0.0000E+000
1065.50  0.0000E+000
1066.00  0.0000E+000
1066.50  0.0000E+000
1067.00  0.0000E+000
1067.50  0.0000E+000
1068.00  0.0000E+000
1068.50  0.0000E+000
1069.00  0.0000E+000
1069.50  0.0000E+000
1070.00  0.0000E+000
1070.50  0.0000E+000
1071.00  0.0000E+000
1071.50  0.0000E+000
1072.00  0.0000E+000
1072.50  0.0000E+000
1073.00  0.0000E+000
1073.50  0.0000E+000
1074.00  0.0000E+000
1074.50  0.0000E+000
1075.00  0.0000E+000
1075.50  0.0000E+000
1076.00  0.0000E+000
1076.50  0.0000E+000
1077.00  0.0000E+000
1077.50  0.0000E+000
1078.00  0.0000E+000
1078.50  0.0000E+000
1079.00  0.0000E+000
1079.50  0.0000E+000
1080.00  0.0000E+000
1080.50  0.0000E+000
1081.00  0.0000E+000
1081.50  0.0000E+000
1082.00  0.0000E+000
1082.50  0.0000E+000
1083.00  0.0000E+000
1083.50  0.0000E+000
1084.00  0.0000E+000
1084.50  0.0000E+000
1085.00  0.0000E+000
1085.50  0.0000E+000
1086.00  0.0000E+000
1086.50  0.0000E+000
1087.00  0.0000E+000
1087.50  0.0000E+000
1088.00  0.0000E+000
1088.50  0.0000E+000
1089.00  0.0000E+000
1089.50  0.0000E+000
1090.00  0.0000E+000
1090.50  0.0000E+000
1091.00  0.0000E+000
1091.50  0.0000E+000
1092.00  0.0000E+000
1092.50  0.0000E+000
1093.00  0.0000E+000
1093.50  0.0000E+000
1094.00  0.0000E+000
1094.50  0.0000E+000
1095.00  0.0000E+000
1095.50  0.0000E+000
1096.00  0.0000E+000
1096.50  0.0000E+000
1097.00  0.0000E+000
1097.50  0.0000E+000
1098.00  0.0000E+000
1098.50  0.0000E+000
1099.00  0.0000E+000
1099.50  0.0000E+000
1100.00  0.0000E+000
1100.50  0.0000E+000
1101.00  0.0000E+000
1101.50  0.0000E+000
1102.00  0.0000E+000
1102.50  0.0000E+000
1103.00  0.0000E+000
1103.50  0.0000E+000
1104.00  0.0000E+000
1104.50  0.0000E+000
1105.00  0.0000E+000
1105.50  0.0000E+000
1106.00  0.0000E+000
1106.50  0.0000E+000
1107.00  0.0000E+000
1107.50  0.0000E+000
1108.00  0.0000E+000
1108.50  0.0000E+000
1109.00  0.0000E+000
1109.50  0.0000E+000
1110.00  0.0000E+000
1110.50  0.0000E+000
1111.00  0.0000E+000
1111.50  0.0000E+000
1112.00  0.0000E+000
1112.50  0.0000E+000
1113.00  0.0000E+000
1113.50  0.0000E+000
1114.00  0.0000E+000
1114.50  0.0000E+000
1115.00  0.0000E+000
1115.50  0.0000E+000
1116.00  0.0000E+000
1116.50  0.0000E+000
1117.00  0.0000E+000
1117.50  0.0000E+000
1118.00  0.0000E+000
1118.50  0.0000E+000
1119.00  0.0000E+000
1119.50  0.0000E+000
1120.00  0.0000E+000
1120.50  0.0000E+000
1121.00  0.0000E+000
1121.50  0.0000E+000
1122.00  0.0000E+000
1122.50  0.0000E+000
1123.00  0.0000E+000
1123.50  0.0000E+000
1124.00  0.0000E+000
1124.50  0.0000E+000
1125.00  0.0000E+000
1125.50  0.0000E+000
1126.00  0.0000E+000
1126.50  0.0000E+000
1127.00  0.0000E+000
1127.50  0.0000E+000
: 6
